ENLIGHTEN Version,2.3.4
Measurement ID,20210329-094722-799520-WP-00686
Serial Number,WP-00686
Model,SIG-VIS-385
Detector,IMX385
Label,09:47:22 WP-00686
Declared Match,
Declared Score,0
Scan Averaging,1
Boxcar,0
Technique,Scope
Baseline Correction Algo,
ROI Pixel Start,0
ROI Pixel End,0
Slit Width,25
Vignetted,False
Interpolated,False
Wavenumber Correction,0
Raman Intensity Corrected,False
Deconvolved,False
Integration Time,11
Timestamp,2021-03-29 09:47:22.799520
Note,
Temperature,0
CCD C0,269.2947082519531
CCD C1,0.45394909381866455
CCD C2,-0.00016288440383505076
CCD C3,7.102651977675123e-08
CCD Offset,0
CCD Gain,1.9
Laser Wavelength,0.0
Laser Enable,False
Laser Power,100
Laser Temperature,0
Pixel Count,1952

Pixel,Wavelength,Processed
0,269.29,1083.00
1,269.75,1393.00
2,270.20,1351.00
3,270.66,1324.00
4,271.11,1380.00
5,271.56,1368.00
6,272.01,1347.00
7,272.46,1363.00
8,272.92,1328.00
9,273.37,1315.00
10,273.82,1339.00
11,274.27,1382.00
12,274.72,1366.00
13,275.17,1357.00
14,275.62,1375.00
15,276.07,1359.00
16,276.52,1362.00
17,276.97,1399.00
18,277.41,1411.00
19,277.86,1423.00
20,278.31,1397.00
21,278.76,1396.00
22,279.20,1424.00
23,279.65,1440.00
24,280.10,1438.00
25,280.54,1408.00
26,280.99,1439.00
27,281.43,1446.00
28,281.88,1389.00
29,282.32,1396.00
30,282.77,1417.00
31,283.21,1405.00
32,283.66,1385.00
33,284.10,1360.00
34,284.54,1370.00
35,284.99,1392.00
36,285.43,1391.00
37,285.87,1399.00
38,286.31,1418.00
39,286.76,1423.00
40,287.20,1477.00
41,287.64,1476.00
42,288.08,1505.00
43,288.52,1488.00
44,288.96,1447.00
45,289.40,1435.00
46,289.84,1433.00
47,290.28,1467.00
48,290.72,1422.00
49,291.16,1449.00
50,291.59,1461.00
51,292.03,1488.00
52,292.47,1487.00
53,292.91,1435.00
54,293.34,1444.00
55,293.78,1475.00
56,294.22,1475.00
57,294.65,1406.00
58,295.09,1391.00
59,295.53,1438.00
60,295.96,1487.00
61,296.40,1469.00
62,296.83,1416.00
63,297.26,1438.00
64,297.70,1472.00
65,298.13,1478.00
66,298.57,1474.00
67,299.00,1471.00
68,299.43,1416.00
69,299.87,1421.00
70,300.30,1470.00
71,300.73,1473.00
72,301.16,1433.00
73,301.59,1365.00
74,302.02,1397.00
75,302.45,1419.00
76,302.89,1439.00
77,303.32,1426.00
78,303.75,1389.00
79,304.18,1395.00
80,304.60,1435.00
81,305.03,1470.00
82,305.46,1457.00
83,305.89,1467.00
84,306.32,1467.00
85,306.75,1427.00
86,307.17,1449.00
87,307.60,1487.00
88,308.03,1418.00
89,308.46,1390.00
90,308.88,1444.00
91,309.31,1470.00
92,309.73,1452.00
93,310.16,1476.00
94,310.59,1508.00
95,311.01,1512.00
96,311.44,1454.00
97,311.86,1434.00
98,312.28,1490.00
99,312.71,1491.00
100,313.13,1424.00
101,313.56,1437.00
102,313.98,1486.00
103,314.40,1479.00
104,314.82,1461.00
105,315.25,1482.00
106,315.67,1489.00
107,316.09,1481.00
108,316.51,1485.00
109,316.93,1497.00
110,317.35,1477.00
111,317.77,1415.00
112,318.19,1467.00
113,318.61,1510.00
114,319.03,1498.00
115,319.45,1479.00
116,319.87,1466.00
117,320.29,1470.00
118,320.71,1501.00
119,321.13,1466.00
120,321.55,1411.00
121,321.96,1475.00
122,322.38,1485.00
123,322.80,1462.00
124,323.22,1489.00
125,323.63,1519.00
126,324.05,1491.00
127,324.46,1512.00
128,324.88,1547.00
129,325.30,1476.00
130,325.71,1469.00
131,326.13,1498.00
132,326.54,1483.00
133,326.96,1500.00
134,327.37,1548.00
135,327.78,1516.00
136,328.20,1486.00
137,328.61,1475.00
138,329.02,1455.00
139,329.44,1472.00
140,329.85,1460.00
141,330.26,1452.00
142,330.67,1477.00
143,331.09,1524.00
144,331.50,1579.00
145,331.91,1530.00
146,332.32,1497.00
147,332.73,1522.00
148,333.14,1538.00
149,333.55,1511.00
150,333.96,1445.00
151,334.37,1415.00
152,334.78,1440.00
153,335.19,1504.00
154,335.60,1467.00
155,336.01,1462.00
156,336.42,1521.00
157,336.82,1547.00
158,337.23,1517.00
159,337.64,1472.00
160,338.05,1462.00
161,338.45,1475.00
162,338.86,1492.00
163,339.27,1431.00
164,339.67,1484.00
165,340.08,1577.00
166,340.49,1527.00
167,340.89,1503.00
168,341.30,1528.00
169,341.70,1527.00
170,342.11,1487.00
171,342.51,1467.00
172,342.92,1512.00
173,343.32,1486.00
174,343.72,1459.00
175,344.13,1505.00
176,344.53,1512.00
177,344.93,1503.00
178,345.34,1501.00
179,345.74,1483.00
180,346.14,1449.00
181,346.54,1532.00
182,346.95,1518.00
183,347.35,1437.00
184,347.75,1527.00
185,348.15,1493.00
186,348.55,1423.00
187,348.95,1493.00
188,349.35,1495.00
189,349.75,1479.00
190,350.15,1509.00
191,350.55,1504.00
192,350.95,1489.00
193,351.35,1536.00
194,351.75,1572.00
195,352.15,1512.00
196,352.55,1478.00
197,352.94,1499.00
198,353.34,1530.00
199,353.74,1506.00
200,354.14,1470.00
201,354.53,1474.00
202,354.93,1454.00
203,355.33,1496.00
204,355.72,1503.00
205,356.12,1462.00
206,356.52,1513.00
207,356.91,1533.00
208,357.31,1533.00
209,357.70,1558.00
210,358.10,1549.00
211,358.49,1500.00
212,358.89,1480.00
213,359.28,1567.00
214,359.68,1559.00
215,360.07,1501.00
216,360.46,1519.00
217,360.86,1480.00
218,361.25,1472.00
219,361.64,1511.00
220,362.04,1527.00
221,362.43,1506.00
222,362.82,1477.00
223,363.21,1533.00
224,363.60,1534.00
225,364.00,1486.00
226,364.39,1480.00
227,364.78,1494.00
228,365.17,1523.00
229,365.56,1495.00
230,365.95,1497.00
231,366.34,1527.00
232,366.73,1571.00
233,367.12,1517.00
234,367.51,1475.00
235,367.90,1507.00
236,368.29,1518.00
237,368.68,1522.00
238,369.07,1506.00
239,369.45,1487.00
240,369.84,1484.00
241,370.23,1578.00
242,370.62,1630.00
243,371.01,1617.00
244,371.39,1561.00
245,371.78,1522.00
246,372.17,1552.00
247,372.55,1556.00
248,372.94,1520.00
249,373.33,1506.00
250,373.71,1517.00
251,374.10,1509.00
252,374.48,1523.00
253,374.87,1582.00
254,375.25,1579.00
255,375.64,1532.00
256,376.02,1551.00
257,376.41,1557.00
258,376.79,1535.00
259,377.18,1527.00
260,377.56,1509.00
261,377.94,1513.00
262,378.33,1503.00
263,378.71,1512.00
264,379.09,1592.00
265,379.47,1592.00
266,379.86,1536.00
267,380.24,1572.00
268,380.62,1578.00
269,381.00,1492.00
270,381.38,1467.00
271,381.77,1482.00
272,382.15,1487.00
273,382.53,1471.00
274,382.91,1486.00
275,383.29,1480.00
276,383.67,1507.00
277,384.05,1550.00
278,384.43,1571.00
279,384.81,1577.00
280,385.19,1561.00
281,385.57,1525.00
282,385.95,1514.00
283,386.33,1534.00
284,386.71,1513.00
285,387.08,1488.00
286,387.46,1472.00
287,387.84,1552.00
288,388.22,1569.00
289,388.60,1471.00
290,388.97,1467.00
291,389.35,1541.00
292,389.73,1553.00
293,390.10,1560.00
294,390.48,1517.00
295,390.86,1516.00
296,391.23,1584.00
297,391.61,1552.00
298,391.99,1502.00
299,392.36,1529.00
300,392.74,1579.00
301,393.11,1602.00
302,393.49,1596.00
303,393.86,1563.00
304,394.24,1546.00
305,394.61,1583.00
306,394.99,1596.00
307,395.36,1541.00
308,395.73,1541.00
309,396.11,1528.00
310,396.48,1533.00
311,396.86,1551.00
312,397.23,1532.00
313,397.60,1558.00
314,397.97,1591.00
315,398.35,1610.00
316,398.72,1555.00
317,399.09,1505.00
318,399.46,1508.00
319,399.83,1518.00
320,400.21,1508.00
321,400.58,1557.00
322,400.95,1596.00
323,401.32,1575.00
324,401.69,1556.00
325,402.06,1517.00
326,402.43,1524.00
327,402.80,1531.00
328,403.17,1555.00
329,403.54,1532.00
330,403.91,1492.00
331,404.28,1516.00
332,404.65,1555.00
333,405.02,1597.00
334,405.39,1532.00
335,405.76,1493.00
336,406.13,1542.00
337,406.50,1561.00
338,406.86,1557.00
339,407.23,1523.00
340,407.60,1529.00
341,407.97,1546.00
342,408.33,1511.00
343,408.70,1514.00
344,409.07,1555.00
345,409.44,1527.00
346,409.80,1517.00
347,410.17,1568.00
348,410.54,1569.00
349,410.90,1572.00
350,411.27,1569.00
351,411.63,1534.00
352,412.00,1535.00
353,412.37,1540.00
354,412.73,1560.00
355,413.10,1623.00
356,413.46,1616.00
357,413.83,1560.00
358,414.19,1586.00
359,414.56,1569.00
360,414.92,1559.00
361,415.28,1585.00
362,415.65,1555.00
363,416.01,1528.00
364,416.38,1535.00
365,416.74,1572.00
366,417.10,1601.00
367,417.47,1601.00
368,417.83,1590.00
369,418.19,1600.00
370,418.55,1594.00
371,418.92,1555.00
372,419.28,1537.00
373,419.64,1537.00
374,420.00,1548.00
375,420.37,1572.00
376,420.73,1598.00
377,421.09,1595.00
378,421.45,1583.00
379,421.81,1621.00
380,422.17,1613.00
381,422.53,1556.00
382,422.89,1593.00
383,423.25,1641.00
384,423.61,1613.00
385,423.97,1603.00
386,424.33,1547.00
387,424.69,1538.00
388,425.05,1611.00
389,425.41,1581.00
390,425.77,1582.00
391,426.13,1622.00
392,426.49,1628.00
393,426.85,1623.00
394,427.21,1607.00
395,427.57,1593.00
396,427.93,1616.00
397,428.28,1621.00
398,428.64,1582.00
399,429.00,1574.00
400,429.36,1526.00
401,429.72,1512.00
402,430.07,1588.00
403,430.43,1590.00
404,430.79,1610.00
405,431.15,1630.00
406,431.50,1618.00
407,431.86,1608.00
408,432.22,1619.00
409,432.57,1621.00
410,432.93,1615.00
411,433.28,1634.00
412,433.64,1659.00
413,434.00,1596.00
414,434.35,1590.00
415,434.71,1677.00
416,435.06,1718.00
417,435.42,1736.00
418,435.77,1694.00
419,436.13,1716.00
420,436.48,1742.00
421,436.84,1717.00
422,437.19,1717.00
423,437.55,1698.00
424,437.90,1688.00
425,438.25,1673.00
426,438.61,1665.00
427,438.96,1669.00
428,439.32,1635.00
429,439.67,1675.00
430,440.02,1671.00
431,440.38,1627.00
432,440.73,1658.00
433,441.08,1668.00
434,441.43,1680.00
435,441.79,1690.00
436,442.14,1702.00
437,442.49,1731.00
438,442.84,1726.00
439,443.20,1714.00
440,443.55,1736.00
441,443.90,1715.00
442,444.25,1685.00
443,444.60,1640.00
444,444.95,1679.00
445,445.31,1705.00
446,445.66,1716.00
447,446.01,1723.00
448,446.36,1698.00
449,446.71,1713.00
450,447.06,1704.00
451,447.41,1701.00
452,447.76,1737.00
453,448.11,1700.00
454,448.46,1711.00
455,448.81,1727.00
456,449.16,1708.00
457,449.51,1701.00
458,449.86,1779.00
459,450.21,1807.00
460,450.56,1771.00
461,450.91,1787.00
462,451.26,1829.00
463,451.61,1835.00
464,451.95,1888.00
465,452.30,1930.00
466,452.65,1989.00
467,453.00,1934.00
468,453.35,2001.00
469,453.70,1995.00
470,454.04,2044.00
471,454.39,2122.00
472,454.74,2192.00
473,455.09,2172.00
474,455.43,2170.00
475,455.78,2193.00
476,456.13,2304.00
477,456.48,2252.00
478,456.82,2269.00
479,457.17,2300.00
480,457.52,2408.00
481,457.86,2406.00
482,458.21,2478.00
483,458.56,2508.00
484,458.90,2595.00
485,459.25,2558.00
486,459.59,2581.00
487,459.94,2621.00
488,460.29,2765.00
489,460.63,2769.00
490,460.98,2932.00
491,461.32,2919.00
492,461.67,3005.00
493,462.01,3021.00
494,462.36,3124.00
495,462.70,3170.00
496,463.05,3175.00
497,463.39,3142.00
498,463.74,3084.00
499,464.08,3096.00
500,464.43,3009.00
501,464.77,3018.00
502,465.11,2913.00
503,465.46,2876.00
504,465.80,2786.00
505,466.15,2775.00
506,466.49,2586.00
507,466.83,2586.00
508,467.18,2515.00
509,467.52,2474.00
510,467.86,2412.00
511,468.21,2423.00
512,468.55,2452.00
513,468.89,2438.00
514,469.24,2342.00
515,469.58,2352.00
516,469.92,2314.00
517,470.26,2306.00
518,470.61,2320.00
519,470.95,2350.00
520,471.29,2326.00
521,471.63,2332.00
522,471.98,2276.00
523,472.32,2226.00
524,472.66,2234.00
525,473.00,2258.00
526,473.34,2260.00
527,473.68,2257.00
528,474.03,2251.00
529,474.37,2262.00
530,474.71,2291.00
531,475.05,2334.00
532,475.39,2344.00
533,475.73,2338.00
534,476.07,2308.00
535,476.41,2293.00
536,476.75,2224.00
537,477.09,2208.00
538,477.43,2243.00
539,477.77,2262.00
540,478.11,2230.00
541,478.45,2192.00
542,478.79,2189.00
543,479.13,2253.00
544,479.47,2288.00
545,479.81,2250.00
546,480.15,2254.00
547,480.49,2299.00
548,480.83,2255.00
549,481.17,2222.00
550,481.51,2246.00
551,481.85,2224.00
552,482.19,2129.00
553,482.53,2119.00
554,482.87,2200.00
555,483.21,2177.00
556,483.54,2147.00
557,483.88,2191.00
558,484.22,2193.00
559,484.56,2189.00
560,484.90,2229.00
561,485.24,2227.00
562,485.58,2192.00
563,485.91,2197.00
564,486.25,2205.00
565,486.59,2211.00
566,486.93,2239.00
567,487.27,2235.00
568,487.60,2239.00
569,487.94,2263.00
570,488.28,2221.00
571,488.62,2247.00
572,488.95,2290.00
573,489.29,2278.00
574,489.63,2254.00
575,489.96,2258.00
576,490.30,2283.00
577,490.64,2284.00
578,490.98,2233.00
579,491.31,2210.00
580,491.65,2294.00
581,491.99,2367.00
582,492.32,2303.00
583,492.66,2283.00
584,493.00,2325.00
585,493.33,2263.00
586,493.67,2237.00
587,494.00,2321.00
588,494.34,2332.00
589,494.68,2299.00
590,495.01,2254.00
591,495.35,2293.00
592,495.68,2313.00
593,496.02,2328.00
594,496.36,2370.00
595,496.69,2362.00
596,497.03,2374.00
597,497.36,2404.00
598,497.70,2359.00
599,498.03,2325.00
600,498.37,2349.00
601,498.70,2393.00
602,499.04,2389.00
603,499.37,2436.00
604,499.71,2481.00
605,500.04,2447.00
606,500.38,2432.00
607,500.71,2458.00
608,501.05,2513.00
609,501.38,2567.00
610,501.72,2621.00
611,502.05,2612.00
612,502.38,2652.00
613,502.72,2699.00
614,503.05,2815.00
615,503.39,2951.00
616,503.72,3079.00
617,504.06,3116.00
618,504.39,3207.00
619,504.72,3291.00
620,505.06,3434.00
621,505.39,3498.00
622,505.73,3675.00
623,506.06,3857.00
624,506.39,4121.00
625,506.73,4241.00
626,507.06,4479.00
627,507.39,4660.00
628,507.73,4925.00
629,508.06,5060.00
630,508.39,5313.00
631,508.73,5479.00
632,509.06,5851.00
633,509.39,6049.00
634,509.73,6313.00
635,510.06,6412.00
636,510.39,6755.00
637,510.73,6918.00
638,511.06,7056.00
639,511.39,7196.00
640,511.72,7471.00
641,512.06,7536.00
642,512.39,7657.00
643,512.72,7700.00
644,513.05,7670.00
645,513.39,7759.00
646,513.72,7780.00
647,514.05,7743.00
648,514.38,7665.00
649,514.72,7703.00
650,515.05,7658.00
651,515.38,7631.00
652,515.71,7582.00
653,516.05,7446.00
654,516.38,7269.00
655,516.71,7250.00
656,517.04,7177.00
657,517.37,7183.00
658,517.70,6975.00
659,518.04,6908.00
660,518.37,6884.00
661,518.70,6828.00
662,519.03,6571.00
663,519.36,6431.00
664,519.70,6309.00
665,520.03,6226.00
666,520.36,6037.00
667,520.69,5969.00
668,521.02,5829.00
669,521.35,5760.00
670,521.68,5586.00
671,522.02,5450.00
672,522.35,5374.00
673,522.68,5310.00
674,523.01,5042.00
675,523.34,4914.00
676,523.67,4722.00
677,524.00,4606.00
678,524.33,4386.00
679,524.66,4247.00
680,525.00,4061.00
681,525.33,3985.00
682,525.66,3837.00
683,525.99,3720.00
684,526.32,3583.00
685,526.65,3531.00
686,526.98,3387.00
687,527.31,3342.00
688,527.64,3235.00
689,527.97,3164.00
690,528.30,3131.00
691,528.63,3025.00
692,528.96,2938.00
693,529.29,2940.00
694,529.63,2862.00
695,529.96,2821.00
696,530.29,2834.00
697,530.62,2798.00
698,530.95,2655.00
699,531.28,2618.00
700,531.61,2626.00
701,531.94,2642.00
702,532.27,2619.00
703,532.60,2571.00
704,532.93,2511.00
705,533.26,2485.00
706,533.59,2461.00
707,533.92,2438.00
708,534.25,2430.00
709,534.58,2448.00
710,534.91,2439.00
711,535.24,2472.00
712,535.57,2471.00
713,535.90,2446.00
714,536.23,2389.00
715,536.56,2397.00
716,536.89,2445.00
717,537.22,2441.00
718,537.55,2404.00
719,537.88,2369.00
720,538.21,2404.00
721,538.54,2402.00
722,538.87,2398.00
723,539.20,2408.00
724,539.53,2324.00
725,539.86,2347.00
726,540.19,2412.00
727,540.52,2435.00
728,540.85,2377.00
729,541.18,2253.00
730,541.51,2342.00
731,541.84,2414.00
732,542.17,2366.00
733,542.50,2349.00
734,542.83,2294.00
735,543.16,2315.00
736,543.48,2304.00
737,543.81,2251.00
738,544.14,2260.00
739,544.47,2309.00
740,544.80,2329.00
741,545.13,2354.00
742,545.46,2340.00
743,545.79,2282.00
744,546.12,2278.00
745,546.45,2230.00
746,546.78,2248.00
747,547.11,2308.00
748,547.44,2263.00
749,547.77,2236.00
750,548.10,2263.00
751,548.43,2270.00
752,548.76,2244.00
753,549.09,2303.00
754,549.42,2327.00
755,549.75,2243.00
756,550.08,2182.00
757,550.40,2183.00
758,550.73,2188.00
759,551.06,2204.00
760,551.39,2204.00
761,551.72,2240.00
762,552.05,2270.00
763,552.38,2231.00
764,552.71,2270.00
765,553.04,2299.00
766,553.37,2266.00
767,553.70,2299.00
768,554.03,2323.00
769,554.36,2347.00
770,554.69,2391.00
771,555.02,2402.00
772,555.35,2425.00
773,555.68,2434.00
774,556.01,2513.00
775,556.33,2582.00
776,556.66,2592.00
777,556.99,2633.00
778,557.32,2690.00
779,557.65,2827.00
780,557.98,2910.00
781,558.31,2993.00
782,558.64,3122.00
783,558.97,3240.00
784,559.30,3367.00
785,559.63,3415.00
786,559.96,3509.00
787,560.29,3641.00
788,560.62,3805.00
789,560.95,4190.00
790,561.28,4641.00
791,561.61,4999.00
792,561.94,5598.00
793,562.27,6249.00
794,562.60,7022.00
795,562.93,7868.00
796,563.25,8897.00
797,563.58,9895.00
798,563.91,11195.00
799,564.24,12591.00
800,564.57,14083.00
801,564.90,15708.00
802,565.23,17731.00
803,565.56,19801.00
804,565.89,22347.00
805,566.22,24813.00
806,566.55,27382.00
807,566.88,29694.00
808,567.21,32261.00
809,567.54,34582.00
810,567.87,36407.00
811,568.20,37791.00
812,568.53,38890.00
813,568.86,39498.00
814,569.19,39723.00
815,569.52,39694.00
816,569.85,39613.00
817,570.18,39366.00
818,570.51,38752.00
819,570.84,37647.00
820,571.17,36015.00
821,571.50,34522.00
822,571.83,32776.00
823,572.16,30648.00
824,572.49,28137.00
825,572.82,26148.00
826,573.15,24224.00
827,573.48,22618.00
828,573.81,21262.00
829,574.14,20034.00
830,574.47,18915.00
831,574.80,17929.00
832,575.13,16898.00
833,575.46,16249.00
834,575.80,15426.00
835,576.13,14591.00
836,576.46,13863.00
837,576.79,13152.00
838,577.12,12542.00
839,577.45,11948.00
840,577.78,11246.00
841,578.11,10713.00
842,578.44,10057.00
843,578.77,9432.00
844,579.10,8751.00
845,579.43,8103.00
846,579.76,7416.00
847,580.09,6949.00
848,580.42,6477.00
849,580.76,5930.00
850,581.09,5476.00
851,581.42,5075.00
852,581.75,4707.00
853,582.08,4395.00
854,582.41,4105.00
855,582.74,3965.00
856,583.07,3840.00
857,583.40,3683.00
858,583.74,3507.00
859,584.07,3255.00
860,584.40,3112.00
861,584.73,3076.00
862,585.06,2956.00
863,585.39,2844.00
864,585.72,2788.00
865,586.06,2778.00
866,586.39,2726.00
867,586.72,2659.00
868,587.05,2656.00
869,587.38,2618.00
870,587.71,2611.00
871,588.05,2540.00
872,588.38,2415.00
873,588.71,2435.00
874,589.04,2490.00
875,589.37,2475.00
876,589.71,2433.00
877,590.04,2395.00
878,590.37,2338.00
879,590.70,2336.00
880,591.03,2353.00
881,591.37,2324.00
882,591.70,2320.00
883,592.03,2289.00
884,592.36,2251.00
885,592.70,2234.00
886,593.03,2259.00
887,593.36,2226.00
888,593.69,2165.00
889,594.03,2263.00
890,594.36,2316.00
891,594.69,2254.00
892,595.03,2213.00
893,595.36,2280.00
894,595.69,2279.00
895,596.02,2261.00
896,596.36,2299.00
897,596.69,2245.00
898,597.02,2198.00
899,597.36,2301.00
900,597.69,2345.00
901,598.02,2289.00
902,598.36,2313.00
903,598.69,2384.00
904,599.02,2427.00
905,599.36,2462.00
906,599.69,2521.00
907,600.03,2583.00
908,600.36,2660.00
909,600.69,2765.00
910,601.03,2809.00
911,601.36,2903.00
912,601.70,3091.00
913,602.03,3309.00
914,602.36,3461.00
915,602.70,3781.00
916,603.03,4060.00
917,603.37,4443.00
918,603.70,4738.00
919,604.04,4983.00
920,604.37,5156.00
921,604.70,5534.00
922,605.04,5757.00
923,605.37,6120.00
924,605.71,6401.00
925,606.04,7017.00
926,606.38,7332.00
927,606.71,7870.00
928,607.05,8126.00
929,607.38,8515.00
930,607.72,8728.00
931,608.05,9177.00
932,608.39,9360.00
933,608.73,9701.00
934,609.06,9831.00
935,609.40,10400.00
936,609.73,10716.00
937,610.07,11553.00
938,610.40,11922.00
939,610.74,12515.00
940,611.08,12633.00
941,611.41,13138.00
942,611.75,13244.00
943,612.08,13343.00
944,612.42,13324.00
945,612.76,13398.00
946,613.09,13377.00
947,613.43,13690.00
948,613.77,13851.00
949,614.10,14517.00
950,614.44,14706.00
951,614.78,15301.00
952,615.11,15441.00
953,615.45,15645.00
954,615.79,15587.00
955,616.12,15296.00
956,616.46,15018.00
957,616.80,14139.00
958,617.14,13696.00
959,617.47,13155.00
960,617.81,12752.00
961,618.15,12049.00
962,618.49,11794.00
963,618.82,11298.00
964,619.16,11096.00
965,619.50,10909.00
966,619.84,10723.00
967,620.18,10650.00
968,620.51,10714.00
969,620.85,10639.00
970,621.19,10530.00
971,621.53,10356.00
972,621.87,10214.00
973,622.21,9614.00
974,622.55,9242.00
975,622.88,8412.00
976,623.22,8013.00
977,623.56,7352.00
978,623.90,7089.00
979,624.24,6513.00
980,624.58,6345.00
981,624.92,6085.00
982,625.26,5927.00
983,625.60,5742.00
984,625.94,5668.00
985,626.28,5515.00
986,626.62,5544.00
987,626.96,5892.00
988,627.30,5938.00
989,627.64,6028.00
990,627.98,6090.00
991,628.32,6231.00
992,628.66,6269.00
993,629.00,6240.00
994,629.34,6161.00
995,629.68,5881.00
996,630.02,5701.00
997,630.36,5292.00
998,630.70,5125.00
999,631.04,4710.00
1000,631.39,4632.00
1001,631.73,4404.00
1002,632.07,4294.00
1003,632.41,4162.00
1004,632.75,4102.00
1005,633.09,4003.00
1006,633.44,3994.00
1007,633.78,3919.00
1008,634.12,3874.00
1009,634.46,3980.00
1010,634.80,4022.00
1011,635.15,4147.00
1012,635.49,4186.00
1013,635.83,4425.00
1014,636.17,4555.00
1015,636.52,5147.00
1016,636.86,5317.00
1017,637.20,6082.00
1018,637.55,6420.00
1019,637.89,7797.00
1020,638.23,8347.00
1021,638.58,10484.00
1022,638.92,11197.00
1023,639.26,14434.00
1024,639.61,15609.00
1025,639.95,21126.00
1026,640.29,23338.00
1027,640.64,31944.00
1028,640.98,34370.00
1029,641.33,40694.00
1030,641.67,41917.00
1031,642.02,42415.00
1032,642.36,42859.00
1033,642.70,42866.00
1034,643.05,41385.00
1035,643.39,36834.00
1036,643.74,35502.00
1037,644.08,31307.00
1038,644.43,29924.00
1039,644.78,26168.00
1040,645.12,25238.00
1041,645.47,22263.00
1042,645.81,21403.00
1043,646.16,18795.00
1044,646.50,18116.00
1045,646.85,15863.00
1046,647.20,15320.00
1047,647.54,13543.00
1048,647.89,13018.00
1049,648.24,11647.00
1050,648.58,11302.00
1051,648.93,10322.00
1052,649.28,10068.00
1053,649.62,9539.00
1054,649.97,9387.00
1055,650.32,9095.00
1056,650.67,9043.00
1057,651.01,9088.00
1058,651.36,9104.00
1059,651.71,9132.00
1060,652.06,9019.00
1061,652.41,8922.00
1062,652.75,8963.00
1063,653.10,8861.00
1064,653.45,8793.00
1065,653.80,8509.00
1066,654.15,8346.00
1067,654.50,7974.00
1068,654.85,7928.00
1069,655.20,7597.00
1070,655.54,7535.00
1071,655.89,7192.00
1072,656.24,7119.00
1073,656.59,6893.00
1074,656.94,6842.00
1075,657.29,6593.00
1076,657.64,6457.00
1077,657.99,6208.00
1078,658.34,6140.00
1079,658.69,5793.00
1080,659.04,5808.00
1081,659.40,5625.00
1082,659.75,5555.00
1083,660.10,5411.00
1084,660.45,5378.00
1085,660.80,5427.00
1086,661.15,5433.00
1087,661.50,5522.00
1088,661.85,5520.00
1089,662.21,5842.00
1090,662.56,5945.00
1091,662.91,6377.00
1092,663.26,6475.00
1093,663.61,6867.00
1094,663.97,6919.00
1095,664.32,7018.00
1096,664.67,7005.00
1097,665.03,6660.00
1098,665.38,6574.00
1099,665.73,5772.00
1100,666.08,5585.00
1101,666.44,4806.00
1102,666.79,4608.00
1103,667.15,3995.00
1104,667.50,3868.00
1105,667.85,3377.00
1106,668.21,3302.00
1107,668.56,3089.00
1108,668.92,3073.00
1109,669.27,2878.00
1110,669.63,2834.00
1111,669.98,2705.00
1112,670.34,2656.00
1113,670.69,2472.00
1114,671.05,2463.00
1115,671.40,2434.00
1116,671.76,2418.00
1117,672.11,2394.00
1118,672.47,2420.00
1119,672.83,2338.00
1120,673.18,2339.00
1121,673.54,2307.00
1122,673.90,2275.00
1123,674.25,2327.00
1124,674.61,2293.00
1125,674.97,2289.00
1126,675.32,2295.00
1127,675.68,2268.00
1128,676.04,2257.00
1129,676.40,2328.00
1130,676.75,2404.00
1131,677.11,2275.00
1132,677.47,2231.00
1133,677.83,2310.00
1134,678.19,2319.00
1135,678.55,2327.00
1136,678.90,2301.00
1137,679.26,2364.00
1138,679.62,2376.00
1139,679.98,2360.00
1140,680.34,2365.00
1141,680.70,2426.00
1142,681.06,2422.00
1143,681.42,2393.00
1144,681.78,2405.00
1145,682.14,2424.00
1146,682.50,2429.00
1147,682.86,2420.00
1148,683.22,2416.00
1149,683.58,2389.00
1150,683.94,2414.00
1151,684.31,2505.00
1152,684.67,2507.00
1153,685.03,2533.00
1154,685.39,2612.00
1155,685.75,2786.00
1156,686.11,2755.00
1157,686.48,2953.00
1158,686.84,2991.00
1159,687.20,3130.00
1160,687.56,3159.00
1161,687.93,3134.00
1162,688.29,3105.00
1163,688.65,2944.00
1164,689.02,2913.00
1165,689.38,2792.00
1166,689.74,2769.00
1167,690.11,2676.00
1168,690.47,2654.00
1169,690.84,2537.00
1170,691.20,2519.00
1171,691.56,2512.00
1172,691.93,2492.00
1173,692.29,2322.00
1174,692.66,2315.00
1175,693.02,2220.00
1176,693.39,2210.00
1177,693.76,2178.00
1178,694.12,2148.00
1179,694.49,2109.00
1180,694.85,2123.00
1181,695.22,2123.00
1182,695.59,2128.00
1183,695.95,2152.00
1184,696.32,2113.00
1185,696.69,2082.00
1186,697.05,2133.00
1187,697.42,2117.00
1188,697.79,2070.00
1189,698.16,2061.00
1190,698.52,2092.00
1191,698.89,2064.00
1192,699.26,2072.00
1193,699.63,2147.00
1194,700.00,2137.00
1195,700.37,2214.00
1196,700.74,2218.00
1197,701.11,2387.00
1198,701.47,2431.00
1199,701.84,2445.00
1200,702.21,2484.00
1201,702.58,2543.00
1202,702.95,2550.00
1203,703.32,2460.00
1204,703.69,2391.00
1205,704.07,2345.00
1206,704.44,2356.00
1207,704.81,2278.00
1208,705.18,2234.00
1209,705.55,2164.00
1210,705.92,2232.00
1211,706.29,2274.00
1212,706.67,2244.00
1213,707.04,2264.00
1214,707.41,2247.00
1215,707.78,2195.00
1216,708.16,2191.00
1217,708.53,2186.00
1218,708.90,2209.00
1219,709.28,2252.00
1220,709.65,2221.00
1221,710.02,2125.00
1222,710.40,2161.00
1223,710.77,2212.00
1224,711.15,2193.00
1225,711.52,2124.00
1226,711.89,2109.00
1227,712.27,2150.00
1228,712.64,2101.00
1229,713.02,2036.00
1230,713.40,2134.00
1231,713.77,2129.00
1232,714.15,2032.00
1233,714.52,2046.00
1234,714.90,2060.00
1235,715.28,2007.00
1236,715.65,2034.00
1237,716.03,2042.00
1238,716.41,1993.00
1239,716.78,2038.00
1240,717.16,2081.00
1241,717.54,2024.00
1242,717.92,2034.00
1243,718.30,2059.00
1244,718.67,2033.00
1245,719.05,1980.00
1246,719.43,2019.00
1247,719.81,2096.00
1248,720.19,2064.00
1249,720.57,2044.00
1250,720.95,2100.00
1251,721.33,2149.00
1252,721.71,2136.00
1253,722.09,2123.00
1254,722.47,2126.00
1255,722.85,2155.00
1256,723.23,2160.00
1257,723.61,2133.00
1258,723.99,2115.00
1259,724.37,2069.00
1260,724.76,2031.00
1261,725.14,2021.00
1262,725.52,2064.00
1263,725.90,2095.00
1264,726.28,2076.00
1265,726.67,1994.00
1266,727.05,1976.00
1267,727.43,1997.00
1268,727.82,2006.00
1269,728.20,2006.00
1270,728.58,2028.00
1271,728.97,1965.00
1272,729.35,1968.00
1273,729.74,1959.00
1274,730.12,1903.00
1275,730.51,1983.00
1276,730.89,2066.00
1277,731.28,2118.00
1278,731.66,2106.00
1279,732.05,2189.00
1280,732.43,2230.00
1281,732.82,2311.00
1282,733.21,2297.00
1283,733.59,2268.00
1284,733.98,2295.00
1285,734.37,2247.00
1286,734.75,2208.00
1287,735.14,2093.00
1288,735.53,2058.00
1289,735.92,2002.00
1290,736.30,1964.00
1291,736.69,1929.00
1292,737.08,1925.00
1293,737.47,1874.00
1294,737.86,1908.00
1295,738.25,1944.00
1296,738.64,1913.00
1297,739.03,1976.00
1298,739.42,1991.00
1299,739.81,2016.00
1300,740.20,2066.00
1301,740.59,2094.00
1302,740.98,2029.00
1303,741.37,1987.00
1304,741.76,2043.00
1305,742.15,2009.00
1306,742.55,1962.00
1307,742.94,1865.00
1308,743.33,1822.00
1309,743.72,1853.00
1310,744.12,1841.00
1311,744.51,1766.00
1312,744.90,1774.00
1313,745.30,1745.00
1314,745.69,1727.00
1315,746.08,1632.00
1316,746.48,1614.00
1317,746.87,1637.00
1318,747.27,1685.00
1319,747.66,1703.00
1320,748.06,1695.00
1321,748.45,1710.00
1322,748.85,1676.00
1323,749.24,1691.00
1324,749.64,1749.00
1325,750.04,1786.00
1326,750.43,1772.00
1327,750.83,1797.00
1328,751.23,1813.00
1329,751.62,1819.00
1330,752.02,1832.00
1331,752.42,1972.00
1332,752.82,1987.00
1333,753.21,2002.00
1334,753.61,2052.00
1335,754.01,2238.00
1336,754.41,2332.00
1337,754.81,2482.00
1338,755.21,2556.00
1339,755.61,2746.00
1340,756.01,2839.00
1341,756.41,3144.00
1342,756.81,3242.00
1343,757.21,3521.00
1344,757.61,3615.00
1345,758.01,3738.00
1346,758.41,3806.00
1347,758.81,3989.00
1348,759.22,4018.00
1349,759.62,4146.00
1350,760.02,4165.00
1351,760.42,4080.00
1352,760.83,3966.00
1353,761.23,3819.00
1354,761.63,3813.00
1355,762.04,3639.00
1356,762.44,3544.00
1357,762.84,3405.00
1358,763.25,3381.00
1359,763.65,3363.00
1360,764.06,3364.00
1361,764.46,3407.00
1362,764.87,3431.00
1363,765.27,3369.00
1364,765.68,3278.00
1365,766.09,2967.00
1366,766.49,2830.00
1367,766.90,2584.00
1368,767.31,2495.00
1369,767.71,2239.00
1370,768.12,2205.00
1371,768.53,1984.00
1372,768.94,1961.00
1373,769.35,1936.00
1374,769.75,1862.00
1375,770.16,1797.00
1376,770.57,1819.00
1377,770.98,1777.00
1378,771.39,1714.00
1379,771.80,1626.00
1380,772.21,1614.00
1381,772.62,1632.00
1382,773.03,1648.00
1383,773.44,1606.00
1384,773.85,1550.00
1385,774.26,1541.00
1386,774.68,1578.00
1387,775.09,1597.00
1388,775.50,1591.00
1389,775.91,1590.00
1390,776.33,1586.00
1391,776.74,1566.00
1392,777.15,1560.00
1393,777.56,1543.00
1394,777.98,1539.00
1395,778.39,1534.00
1396,778.81,1536.00
1397,779.22,1540.00
1398,779.64,1559.00
1399,780.05,1538.00
1400,780.47,1529.00
1401,780.88,1584.00
1402,781.30,1556.00
1403,781.71,1502.00
1404,782.13,1478.00
1405,782.55,1576.00
1406,782.96,1617.00
1407,783.38,1570.00
1408,783.80,1575.00
1409,784.22,1552.00
1410,784.64,1515.00
1411,785.05,1534.00
1412,785.47,1545.00
1413,785.89,1505.00
1414,786.31,1512.00
1415,786.73,1540.00
1416,787.15,1577.00
1417,787.57,1555.00
1418,787.99,1546.00
1419,788.41,1527.00
1420,788.83,1493.00
1421,789.25,1549.00
1422,789.67,1564.00
1423,790.10,1519.00
1424,790.52,1536.00
1425,790.94,1562.00
1426,791.36,1534.00
1427,791.79,1470.00
1428,792.21,1492.00
1429,792.63,1565.00
1430,793.06,1561.00
1431,793.48,1515.00
1432,793.90,1493.00
1433,794.33,1511.00
1434,794.75,1538.00
1435,795.18,1549.00
1436,795.60,1534.00
1437,796.03,1502.00
1438,796.46,1493.00
1439,796.88,1526.00
1440,797.31,1527.00
1441,797.74,1542.00
1442,798.16,1534.00
1443,798.59,1495.00
1444,799.02,1495.00
1445,799.45,1532.00
1446,799.87,1581.00
1447,800.30,1564.00
1448,800.73,1522.00
1449,801.16,1498.00
1450,801.59,1510.00
1451,802.02,1564.00
1452,802.45,1574.00
1453,802.88,1549.00
1454,803.31,1576.00
1455,803.74,1597.00
1456,804.17,1581.00
1457,804.60,1529.00
1458,805.04,1535.00
1459,805.47,1531.00
1460,805.90,1491.00
1461,806.33,1493.00
1462,806.77,1489.00
1463,807.20,1480.00
1464,807.63,1513.00
1465,808.07,1538.00
1466,808.50,1531.00
1467,808.94,1527.00
1468,809.37,1515.00
1469,809.80,1482.00
1470,810.24,1489.00
1471,810.68,1553.00
1472,811.11,1529.00
1473,811.55,1505.00
1474,811.98,1509.00
1475,812.42,1477.00
1476,812.86,1487.00
1477,813.30,1433.00
1478,813.73,1430.00
1479,814.17,1516.00
1480,814.61,1517.00
1481,815.05,1521.00
1482,815.49,1573.00
1483,815.93,1560.00
1484,816.37,1535.00
1485,816.81,1525.00
1486,817.25,1455.00
1487,817.69,1486.00
1488,818.13,1561.00
1489,818.57,1520.00
1490,819.01,1486.00
1491,819.45,1486.00
1492,819.90,1499.00
1493,820.34,1510.00
1494,820.78,1482.00
1495,821.22,1465.00
1496,821.67,1473.00
1497,822.11,1466.00
1498,822.55,1480.00
1499,823.00,1505.00
1500,823.44,1484.00
1501,823.89,1439.00
1502,824.33,1445.00
1503,824.78,1447.00
1504,825.22,1458.00
1505,825.67,1499.00
1506,826.12,1532.00
1507,826.56,1473.00
1508,827.01,1421.00
1509,827.46,1439.00
1510,827.91,1423.00
1511,828.35,1414.00
1512,828.80,1454.00
1513,829.25,1470.00
1514,829.70,1440.00
1515,830.15,1432.00
1516,830.60,1473.00
1517,831.05,1500.00
1518,831.50,1458.00
1519,831.95,1425.00
1520,832.40,1444.00
1521,832.85,1463.00
1522,833.30,1488.00
1523,833.76,1529.00
1524,834.21,1522.00
1525,834.66,1467.00
1526,835.11,1462.00
1527,835.57,1515.00
1528,836.02,1510.00
1529,836.47,1493.00
1530,836.93,1528.00
1531,837.38,1518.00
1532,837.84,1475.00
1533,838.29,1476.00
1534,838.75,1469.00
1535,839.20,1475.00
1536,839.66,1508.00
1537,840.12,1477.00
1538,840.57,1448.00
1539,841.03,1444.00
1540,841.49,1465.00
1541,841.95,1459.00
1542,842.40,1425.00
1543,842.86,1421.00
1544,843.32,1459.00
1545,843.78,1471.00
1546,844.24,1440.00
1547,844.70,1424.00
1548,845.16,1423.00
1549,845.62,1451.00
1550,846.08,1442.00
1551,846.54,1418.00
1552,847.00,1420.00
1553,847.46,1439.00
1554,847.93,1455.00
1555,848.39,1430.00
1556,848.85,1378.00
1557,849.31,1402.00
1558,849.78,1445.00
1559,850.24,1455.00
1560,850.71,1487.00
1561,851.17,1470.00
1562,851.64,1428.00
1563,852.10,1453.00
1564,852.57,1458.00
1565,853.03,1432.00
1566,853.50,1476.00
1567,853.96,1447.00
1568,854.43,1381.00
1569,854.90,1398.00
1570,855.37,1427.00
1571,855.83,1440.00
1572,856.30,1436.00
1573,856.77,1470.00
1574,857.24,1471.00
1575,857.71,1412.00
1576,858.18,1415.00
1577,858.65,1379.00
1578,859.12,1389.00
1579,859.59,1482.00
1580,860.06,1459.00
1581,860.53,1399.00
1582,861.00,1397.00
1583,861.48,1406.00
1584,861.95,1436.00
1585,862.42,1430.00
1586,862.89,1398.00
1587,863.37,1412.00
1588,863.84,1478.00
1589,864.32,1486.00
1590,864.79,1478.00
1591,865.26,1449.00
1592,865.74,1439.00
1593,866.22,1426.00
1594,866.69,1391.00
1595,867.17,1437.00
1596,867.64,1448.00
1597,868.12,1442.00
1598,868.60,1422.00
1599,869.08,1410.00
1600,869.55,1422.00
1601,870.03,1443.00
1602,870.51,1439.00
1603,870.99,1396.00
1604,871.47,1387.00
1605,871.95,1346.00
1606,872.43,1401.00
1607,872.91,1478.00
1608,873.39,1398.00
1609,873.87,1345.00
1610,874.35,1374.00
1611,874.84,1440.00
1612,875.32,1456.00
1613,875.80,1453.00
1614,876.28,1448.00
1615,876.77,1392.00
1616,877.25,1406.00
1617,877.74,1474.00
1618,878.22,1432.00
1619,878.70,1442.00
1620,879.19,1444.00
1621,879.68,1399.00
1622,880.16,1428.00
1623,880.65,1450.00
1624,881.13,1445.00
1625,881.62,1458.00
1626,882.11,1474.00
1627,882.60,1447.00
1628,883.08,1459.00
1629,883.57,1419.00
1630,884.06,1386.00
1631,884.55,1432.00
1632,885.04,1450.00
1633,885.53,1452.00
1634,886.02,1421.00
1635,886.51,1414.00
1636,887.00,1434.00
1637,887.49,1467.00
1638,887.99,1495.00
1639,888.48,1435.00
1640,888.97,1384.00
1641,889.46,1409.00
1642,889.96,1422.00
1643,890.45,1441.00
1644,890.95,1467.00
1645,891.44,1442.00
1646,891.93,1438.00
1647,892.43,1467.00
1648,892.93,1461.00
1649,893.42,1432.00
1650,893.92,1480.00
1651,894.41,1447.00
1652,894.91,1384.00
1653,895.41,1414.00
1654,895.91,1407.00
1655,896.41,1416.00
1656,896.90,1422.00
1657,897.40,1407.00
1658,897.90,1409.00
1659,898.40,1439.00
1660,898.90,1479.00
1661,899.40,1462.00
1662,899.90,1463.00
1663,900.40,1498.00
1664,900.91,1483.00
1665,901.41,1433.00
1666,901.91,1410.00
1667,902.41,1475.00
1668,902.92,1485.00
1669,903.42,1462.00
1670,903.92,1491.00
1671,904.43,1463.00
1672,904.93,1456.00
1673,905.44,1461.00
1674,905.94,1450.00
1675,906.45,1430.00
1676,906.96,1423.00
1677,907.46,1427.00
1678,907.97,1434.00
1679,908.48,1455.00
1680,908.99,1411.00
1681,909.49,1400.00
1682,910.00,1414.00
1683,910.51,1437.00
1684,911.02,1437.00
1685,911.53,1363.00
1686,912.04,1374.00
1687,912.55,1375.00
1688,913.06,1366.00
1689,913.57,1382.00
1690,914.09,1399.00
1691,914.60,1449.00
1692,915.11,1463.00
1693,915.62,1441.00
1694,916.14,1424.00
1695,916.65,1463.00
1696,917.16,1470.00
1697,917.68,1397.00
1698,918.19,1370.00
1699,918.71,1454.00
1700,919.23,1451.00
1701,919.74,1425.00
1702,920.26,1438.00
1703,920.78,1407.00
1704,921.29,1398.00
1705,921.81,1426.00
1706,922.33,1408.00
1707,922.85,1391.00
1708,923.37,1395.00
1709,923.89,1386.00
1710,924.40,1399.00
1711,924.93,1352.00
1712,925.45,1263.00
1713,925.97,1298.00
1714,926.49,1386.00
1715,927.01,1396.00
1716,927.53,1391.00
1717,928.05,1368.00
1718,928.58,1319.00
1719,929.10,1304.00
1720,929.62,1381.00
1721,930.15,1384.00
1722,930.67,1359.00
1723,931.20,1408.00
1724,931.72,1415.00
1725,932.25,1378.00
1726,932.78,1373.00
1727,933.30,1439.00
1728,933.83,1466.00
1729,934.36,1369.00
1730,934.89,1353.00
1731,935.41,1386.00
1732,935.94,1361.00
1733,936.47,1381.00
1734,937.00,1400.00
1735,937.53,1366.00
1736,938.06,1352.00
1737,938.59,1380.00
1738,939.12,1390.00
1739,939.65,1352.00
1740,940.19,1356.00
1741,940.72,1404.00
1742,941.25,1437.00
1743,941.79,1446.00
1744,942.32,1385.00
1745,942.85,1365.00
1746,943.39,1365.00
1747,943.92,1363.00
1748,944.46,1375.00
1749,944.99,1318.00
1750,945.53,1296.00
1751,946.07,1292.00
1752,946.60,1322.00
1753,947.14,1398.00
1754,947.68,1444.00
1755,948.22,1471.00
1756,948.76,1463.00
1757,949.30,1404.00
1758,949.83,1368.00
1759,950.37,1399.00
1760,950.92,1391.00
1761,951.46,1382.00
1762,952.00,1381.00
1763,952.54,1347.00
1764,953.08,1360.00
1765,953.62,1348.00
1766,954.17,1335.00
1767,954.71,1368.00
1768,955.25,1375.00
1769,955.80,1393.00
1770,956.34,1371.00
1771,956.89,1364.00
1772,957.43,1384.00
1773,957.98,1386.00
1774,958.53,1415.00
1775,959.07,1367.00
1776,959.62,1382.00
1777,960.17,1421.00
1778,960.72,1370.00
1779,961.26,1374.00
1780,961.81,1380.00
1781,962.36,1367.00
1782,962.91,1353.00
1783,963.46,1331.00
1784,964.01,1327.00
1785,964.56,1345.00
1786,965.12,1367.00
1787,965.67,1353.00
1788,966.22,1319.00
1789,966.77,1344.00
1790,967.33,1357.00
1791,967.88,1381.00
1792,968.43,1374.00
1793,968.99,1346.00
1794,969.54,1351.00
1795,970.10,1308.00
1796,970.66,1313.00
1797,971.21,1289.00
1798,971.77,1297.00
1799,972.33,1336.00
1800,972.88,1314.00
1801,973.44,1295.00
1802,974.00,1321.00
1803,974.56,1366.00
1804,975.12,1340.00
1805,975.68,1262.00
1806,976.24,1306.00
1807,976.80,1344.00
1808,977.36,1305.00
1809,977.92,1324.00
1810,978.49,1296.00
1811,979.05,1265.00
1812,979.61,1312.00
1813,980.17,1351.00
1814,980.74,1316.00
1815,981.30,1305.00
1816,981.87,1298.00
1817,982.43,1311.00
1818,983.00,1350.00
1819,983.57,1372.00
1820,984.13,1331.00
1821,984.70,1274.00
1822,985.27,1301.00
1823,985.83,1289.00
1824,986.40,1278.00
1825,986.97,1317.00
1826,987.54,1309.00
1827,988.11,1310.00
1828,988.68,1342.00
1829,989.25,1324.00
1830,989.82,1300.00
1831,990.39,1305.00
1832,990.97,1266.00
1833,991.54,1288.00
1834,992.11,1306.00
1835,992.69,1274.00
1836,993.26,1279.00
1837,993.83,1261.00
1838,994.41,1296.00
1839,994.98,1262.00
1840,995.56,1224.00
1841,996.14,1265.00
1842,996.71,1303.00
1843,997.29,1284.00
1844,997.87,1260.00
1845,998.45,1310.00
1846,999.02,1323.00
1847,999.60,1310.00
1848,1000.18,1283.00
1849,1000.76,1252.00
1850,1001.34,1258.00
1851,1001.92,1237.00
1852,1002.50,1269.00
1853,1003.09,1316.00
1854,1003.67,1287.00
1855,1004.25,1214.00
1856,1004.83,1220.00
1857,1005.42,1223.00
1858,1006.00,1205.00
1859,1006.59,1191.00
1860,1007.17,1204.00
1861,1007.76,1253.00
1862,1008.34,1268.00
1863,1008.93,1250.00
1864,1009.52,1265.00
1865,1010.10,1226.00
1866,1010.69,1183.00
1867,1011.28,1245.00
1868,1011.87,1278.00
1869,1012.46,1273.00
1870,1013.05,1265.00
1871,1013.64,1268.00
1872,1014.23,1244.00
1873,1014.82,1231.00
1874,1015.41,1240.00
1875,1016.00,1272.00
1876,1016.59,1273.00
1877,1017.19,1269.00
1878,1017.78,1290.00
1879,1018.37,1252.00
1880,1018.97,1183.00
1881,1019.56,1180.00
1882,1020.16,1215.00
1883,1020.75,1295.00
1884,1021.35,1305.00
1885,1021.95,1213.00
1886,1022.54,1206.00
1887,1023.14,1241.00
1888,1023.74,1217.00
1889,1024.34,1159.00
1890,1024.94,1174.00
1891,1025.54,1214.00
1892,1026.14,1251.00
1893,1026.74,1236.00
1894,1027.34,1207.00
1895,1027.94,1229.00
1896,1028.54,1199.00
1897,1029.15,1179.00
1898,1029.75,1200.00
1899,1030.35,1210.00
1900,1030.96,1213.00
1901,1031.56,1206.00
1902,1032.17,1213.00
1903,1032.77,1191.00
1904,1033.38,1190.00
1905,1033.98,1244.00
1906,1034.59,1253.00
1907,1035.20,1203.00
1908,1035.81,1201.00
1909,1036.41,1246.00
1910,1037.02,1224.00
1911,1037.63,1196.00
1912,1038.24,1203.00
1913,1038.85,1182.00
1914,1039.46,1151.00
1915,1040.07,1150.00
1916,1040.69,1157.00
1917,1041.30,1219.00
1918,1041.91,1269.00
1919,1042.52,1193.00
1920,1043.14,1121.00
1921,1043.75,1130.00
1922,1044.37,1166.00
1923,1044.98,1152.00
1924,1045.60,1172.00
1925,1046.21,1203.00
1926,1046.83,1150.00
1927,1047.45,1131.00
1928,1048.07,1170.00
1929,1048.68,1189.00
1930,1049.30,1224.00
1931,1049.92,1161.00
1932,1050.54,1120.00
1933,1051.16,1119.00
1934,1051.78,1092.00
1935,1052.40,1122.00
1936,1053.02,1169.00
1937,1053.65,1148.00
1938,1054.27,1139.00
1939,1054.89,1175.00
1940,1055.52,1172.00
1941,1056.14,1178.00
1942,1056.76,1150.00
1943,1057.39,1105.00
1944,1058.02,1138.00
1945,1058.64,1176.00
1946,1059.27,1154.00
1947,1059.90,1120.00
1948,1060.52,1354.00
1949,1061.15,1354.00
1950,1061.78,1354.00
1951,1062.41,1354.00
