ENLIGHTEN Version,2.3.4
Measurement ID,20210329-094755-288958-WP-00686
Serial Number,WP-00686
Model,SIG-VIS-385
Detector,IMX385
Label,09:47:55 WP-00686
Declared Match,
Declared Score,0
Scan Averaging,1
Boxcar,0
Technique,Scope
Baseline Correction Algo,
ROI Pixel Start,0
ROI Pixel End,0
Slit Width,25
Vignetted,False
Interpolated,False
Wavenumber Correction,0
Raman Intensity Corrected,False
Deconvolved,False
Integration Time,11
Timestamp,2021-03-29 09:47:55.288958
Note,
Temperature,0
CCD C0,269.2947082519531
CCD C1,0.45394909381866455
CCD C2,-0.00016288440383505076
CCD C3,7.102651977675123e-08
CCD Offset,0
CCD Gain,1.9
Laser Wavelength,0.0
Laser Enable,False
Laser Power,100
Laser Temperature,0
Pixel Count,1952

Pixel,Wavelength,Processed
0,269.29,1095.00
1,269.75,1432.00
2,270.20,1404.00
3,270.66,1351.00
4,271.11,1370.00
5,271.56,1386.00
6,272.01,1360.00
7,272.46,1380.00
8,272.92,1378.00
9,273.37,1388.00
10,273.82,1404.00
11,274.27,1405.00
12,274.72,1428.00
13,275.17,1382.00
14,275.62,1363.00
15,276.07,1380.00
16,276.52,1387.00
17,276.97,1396.00
18,277.41,1388.00
19,277.86,1405.00
20,278.31,1374.00
21,278.76,1367.00
22,279.20,1402.00
23,279.65,1402.00
24,280.10,1407.00
25,280.54,1400.00
26,280.99,1437.00
27,281.43,1430.00
28,281.88,1402.00
29,282.32,1396.00
30,282.77,1386.00
31,283.21,1405.00
32,283.66,1386.00
33,284.10,1408.00
34,284.54,1449.00
35,284.99,1401.00
36,285.43,1395.00
37,285.87,1419.00
38,286.31,1436.00
39,286.76,1417.00
40,287.20,1413.00
41,287.64,1435.00
42,288.08,1456.00
43,288.52,1466.00
44,288.96,1456.00
45,289.40,1462.00
46,289.84,1467.00
47,290.28,1480.00
48,290.72,1452.00
49,291.16,1419.00
50,291.59,1429.00
51,292.03,1518.00
52,292.47,1551.00
53,292.91,1479.00
54,293.34,1446.00
55,293.78,1481.00
56,294.22,1492.00
57,294.65,1461.00
58,295.09,1436.00
59,295.53,1480.00
60,295.96,1470.00
61,296.40,1432.00
62,296.83,1478.00
63,297.26,1523.00
64,297.70,1510.00
65,298.13,1500.00
66,298.57,1444.00
67,299.00,1427.00
68,299.43,1454.00
69,299.87,1445.00
70,300.30,1452.00
71,300.73,1435.00
72,301.16,1408.00
73,301.59,1408.00
74,302.02,1424.00
75,302.45,1438.00
76,302.89,1456.00
77,303.32,1416.00
78,303.75,1423.00
79,304.18,1422.00
80,304.60,1423.00
81,305.03,1461.00
82,305.46,1475.00
83,305.89,1503.00
84,306.32,1459.00
85,306.75,1434.00
86,307.17,1478.00
87,307.60,1506.00
88,308.03,1453.00
89,308.46,1427.00
90,308.88,1481.00
91,309.31,1478.00
92,309.73,1447.00
93,310.16,1434.00
94,310.59,1452.00
95,311.01,1457.00
96,311.44,1436.00
97,311.86,1474.00
98,312.28,1481.00
99,312.71,1442.00
100,313.13,1420.00
101,313.56,1424.00
102,313.98,1458.00
103,314.40,1492.00
104,314.82,1491.00
105,315.25,1467.00
106,315.67,1504.00
107,316.09,1541.00
108,316.51,1503.00
109,316.93,1495.00
110,317.35,1479.00
111,317.77,1434.00
112,318.19,1484.00
113,318.61,1524.00
114,319.03,1507.00
115,319.45,1463.00
116,319.87,1427.00
117,320.29,1463.00
118,320.71,1513.00
119,321.13,1504.00
120,321.55,1454.00
121,321.96,1457.00
122,322.38,1478.00
123,322.80,1470.00
124,323.22,1445.00
125,323.63,1468.00
126,324.05,1494.00
127,324.46,1489.00
128,324.88,1497.00
129,325.30,1534.00
130,325.71,1561.00
131,326.13,1495.00
132,326.54,1450.00
133,326.96,1474.00
134,327.37,1524.00
135,327.78,1557.00
136,328.20,1519.00
137,328.61,1488.00
138,329.02,1468.00
139,329.44,1464.00
140,329.85,1486.00
141,330.26,1486.00
142,330.67,1529.00
143,331.09,1547.00
144,331.50,1534.00
145,331.91,1485.00
146,332.32,1484.00
147,332.73,1521.00
148,333.14,1475.00
149,333.55,1474.00
150,333.96,1483.00
151,334.37,1437.00
152,334.78,1461.00
153,335.19,1507.00
154,335.60,1485.00
155,336.01,1496.00
156,336.42,1516.00
157,336.82,1495.00
158,337.23,1498.00
159,337.64,1518.00
160,338.05,1496.00
161,338.45,1421.00
162,338.86,1447.00
163,339.27,1530.00
164,339.67,1513.00
165,340.08,1511.00
166,340.49,1559.00
167,340.89,1553.00
168,341.30,1510.00
169,341.70,1521.00
170,342.11,1478.00
171,342.51,1474.00
172,342.92,1547.00
173,343.32,1540.00
174,343.72,1536.00
175,344.13,1535.00
176,344.53,1508.00
177,344.93,1502.00
178,345.34,1501.00
179,345.74,1466.00
180,346.14,1463.00
181,346.54,1513.00
182,346.95,1556.00
183,347.35,1521.00
184,347.75,1511.00
185,348.15,1568.00
186,348.55,1566.00
187,348.95,1555.00
188,349.35,1517.00
189,349.75,1495.00
190,350.15,1532.00
191,350.55,1561.00
192,350.95,1542.00
193,351.35,1542.00
194,351.75,1528.00
195,352.15,1516.00
196,352.55,1529.00
197,352.94,1542.00
198,353.34,1566.00
199,353.74,1611.00
200,354.14,1601.00
201,354.53,1488.00
202,354.93,1479.00
203,355.33,1554.00
204,355.72,1550.00
205,356.12,1530.00
206,356.52,1532.00
207,356.91,1505.00
208,357.31,1503.00
209,357.70,1516.00
210,358.10,1558.00
211,358.49,1578.00
212,358.89,1534.00
213,359.28,1527.00
214,359.68,1518.00
215,360.07,1518.00
216,360.46,1590.00
217,360.86,1519.00
218,361.25,1463.00
219,361.64,1536.00
220,362.04,1529.00
221,362.43,1437.00
222,362.82,1426.00
223,363.21,1499.00
224,363.60,1542.00
225,364.00,1611.00
226,364.39,1544.00
227,364.78,1494.00
228,365.17,1515.00
229,365.56,1540.00
230,365.95,1569.00
231,366.34,1509.00
232,366.73,1510.00
233,367.12,1513.00
234,367.51,1518.00
235,367.90,1530.00
236,368.29,1534.00
237,368.68,1547.00
238,369.07,1532.00
239,369.45,1513.00
240,369.84,1527.00
241,370.23,1553.00
242,370.62,1540.00
243,371.01,1576.00
244,371.39,1559.00
245,371.78,1497.00
246,372.17,1551.00
247,372.55,1562.00
248,372.94,1544.00
249,373.33,1521.00
250,373.71,1493.00
251,374.10,1494.00
252,374.48,1532.00
253,374.87,1555.00
254,375.25,1541.00
255,375.64,1553.00
256,376.02,1552.00
257,376.41,1529.00
258,376.79,1543.00
259,377.18,1546.00
260,377.56,1536.00
261,377.94,1564.00
262,378.33,1548.00
263,378.71,1539.00
264,379.09,1576.00
265,379.47,1588.00
266,379.86,1540.00
267,380.24,1522.00
268,380.62,1548.00
269,381.00,1516.00
270,381.38,1496.00
271,381.77,1490.00
272,382.15,1467.00
273,382.53,1511.00
274,382.91,1536.00
275,383.29,1510.00
276,383.67,1520.00
277,384.05,1563.00
278,384.43,1590.00
279,384.81,1571.00
280,385.19,1543.00
281,385.57,1520.00
282,385.95,1520.00
283,386.33,1503.00
284,386.71,1515.00
285,387.08,1480.00
286,387.46,1462.00
287,387.84,1547.00
288,388.22,1550.00
289,388.60,1502.00
290,388.97,1524.00
291,389.35,1568.00
292,389.73,1537.00
293,390.10,1534.00
294,390.48,1517.00
295,390.86,1507.00
296,391.23,1588.00
297,391.61,1583.00
298,391.99,1526.00
299,392.36,1577.00
300,392.74,1582.00
301,393.11,1549.00
302,393.49,1562.00
303,393.86,1572.00
304,394.24,1572.00
305,394.61,1550.00
306,394.99,1529.00
307,395.36,1519.00
308,395.73,1516.00
309,396.11,1533.00
310,396.48,1523.00
311,396.86,1539.00
312,397.23,1543.00
313,397.60,1540.00
314,397.97,1586.00
315,398.35,1546.00
316,398.72,1549.00
317,399.09,1557.00
318,399.46,1542.00
319,399.83,1579.00
320,400.21,1583.00
321,400.58,1562.00
322,400.95,1575.00
323,401.32,1591.00
324,401.69,1613.00
325,402.06,1553.00
326,402.43,1491.00
327,402.80,1562.00
328,403.17,1590.00
329,403.54,1524.00
330,403.91,1493.00
331,404.28,1521.00
332,404.65,1561.00
333,405.02,1606.00
334,405.39,1597.00
335,405.76,1547.00
336,406.13,1534.00
337,406.50,1578.00
338,406.86,1598.00
339,407.23,1574.00
340,407.60,1522.00
341,407.97,1557.00
342,408.33,1582.00
343,408.70,1566.00
344,409.07,1626.00
345,409.44,1587.00
346,409.80,1487.00
347,410.17,1507.00
348,410.54,1582.00
349,410.90,1605.00
350,411.27,1589.00
351,411.63,1593.00
352,412.00,1592.00
353,412.37,1594.00
354,412.73,1580.00
355,413.10,1569.00
356,413.46,1571.00
357,413.83,1604.00
358,414.19,1633.00
359,414.56,1581.00
360,414.92,1575.00
361,415.28,1565.00
362,415.65,1536.00
363,416.01,1544.00
364,416.38,1537.00
365,416.74,1521.00
366,417.10,1559.00
367,417.47,1589.00
368,417.83,1600.00
369,418.19,1604.00
370,418.55,1556.00
371,418.92,1548.00
372,419.28,1593.00
373,419.64,1590.00
374,420.00,1559.00
375,420.37,1586.00
376,420.73,1583.00
377,421.09,1554.00
378,421.45,1575.00
379,421.81,1614.00
380,422.17,1637.00
381,422.53,1622.00
382,422.89,1599.00
383,423.25,1571.00
384,423.61,1585.00
385,423.97,1595.00
386,424.33,1539.00
387,424.69,1522.00
388,425.05,1548.00
389,425.41,1622.00
390,425.77,1647.00
391,426.13,1590.00
392,426.49,1621.00
393,426.85,1646.00
394,427.21,1648.00
395,427.57,1677.00
396,427.93,1658.00
397,428.28,1623.00
398,428.64,1572.00
399,429.00,1619.00
400,429.36,1628.00
401,429.72,1634.00
402,430.07,1724.00
403,430.43,1691.00
404,430.79,1690.00
405,431.15,1686.00
406,431.50,1703.00
407,431.86,1633.00
408,432.22,1604.00
409,432.57,1654.00
410,432.93,1646.00
411,433.28,1664.00
412,433.64,1654.00
413,434.00,1674.00
414,434.35,1687.00
415,434.71,1665.00
416,435.06,1654.00
417,435.42,1662.00
418,435.77,1664.00
419,436.13,1692.00
420,436.48,1756.00
421,436.84,1783.00
422,437.19,1746.00
423,437.55,1703.00
424,437.90,1759.00
425,438.25,1762.00
426,438.61,1673.00
427,438.96,1626.00
428,439.32,1660.00
429,439.67,1715.00
430,440.02,1695.00
431,440.38,1701.00
432,440.73,1719.00
433,441.08,1710.00
434,441.43,1717.00
435,441.79,1705.00
436,442.14,1690.00
437,442.49,1666.00
438,442.84,1647.00
439,443.20,1652.00
440,443.55,1711.00
441,443.90,1772.00
442,444.25,1757.00
443,444.60,1690.00
444,444.95,1664.00
445,445.31,1726.00
446,445.66,1751.00
447,446.01,1680.00
448,446.36,1665.00
449,446.71,1725.00
450,447.06,1759.00
451,447.41,1725.00
452,447.76,1746.00
453,448.11,1746.00
454,448.46,1777.00
455,448.81,1735.00
456,449.16,1737.00
457,449.51,1780.00
458,449.86,1781.00
459,450.21,1800.00
460,450.56,1759.00
461,450.91,1734.00
462,451.26,1801.00
463,451.61,1873.00
464,451.95,1987.00
465,452.30,1945.00
466,452.65,1969.00
467,453.00,1928.00
468,453.35,1995.00
469,453.70,2040.00
470,454.04,2046.00
471,454.39,2042.00
472,454.74,2101.00
473,455.09,2087.00
474,455.43,2134.00
475,455.78,2196.00
476,456.13,2317.00
477,456.48,2279.00
478,456.82,2325.00
479,457.17,2328.00
480,457.52,2359.00
481,457.86,2406.00
482,458.21,2488.00
483,458.56,2478.00
484,458.90,2533.00
485,459.25,2586.00
486,459.59,2663.00
487,459.94,2638.00
488,460.29,2807.00
489,460.63,2866.00
490,460.98,2988.00
491,461.32,2918.00
492,461.67,2997.00
493,462.01,3035.00
494,462.36,3149.00
495,462.70,3143.00
496,463.05,3121.00
497,463.39,3182.00
498,463.74,3182.00
499,464.08,3111.00
500,464.43,3050.00
501,464.77,3051.00
502,465.11,2967.00
503,465.46,2983.00
504,465.80,2878.00
505,466.15,2837.00
506,466.49,2658.00
507,466.83,2642.00
508,467.18,2531.00
509,467.52,2568.00
510,467.86,2482.00
511,468.21,2412.00
512,468.55,2400.00
513,468.89,2432.00
514,469.24,2393.00
515,469.58,2381.00
516,469.92,2347.00
517,470.26,2362.00
518,470.61,2353.00
519,470.95,2339.00
520,471.29,2277.00
521,471.63,2272.00
522,471.98,2300.00
523,472.32,2300.00
524,472.66,2313.00
525,473.00,2316.00
526,473.34,2254.00
527,473.68,2333.00
528,474.03,2389.00
529,474.37,2301.00
530,474.71,2264.00
531,475.05,2273.00
532,475.39,2224.00
533,475.73,2253.00
534,476.07,2275.00
535,476.41,2268.00
536,476.75,2234.00
537,477.09,2249.00
538,477.43,2266.00
539,477.77,2281.00
540,478.11,2285.00
541,478.45,2205.00
542,478.79,2193.00
543,479.13,2226.00
544,479.47,2232.00
545,479.81,2259.00
546,480.15,2264.00
547,480.49,2266.00
548,480.83,2252.00
549,481.17,2239.00
550,481.51,2236.00
551,481.85,2240.00
552,482.19,2229.00
553,482.53,2248.00
554,482.87,2272.00
555,483.21,2249.00
556,483.54,2248.00
557,483.88,2254.00
558,484.22,2217.00
559,484.56,2205.00
560,484.90,2238.00
561,485.24,2238.00
562,485.58,2221.00
563,485.91,2211.00
564,486.25,2232.00
565,486.59,2219.00
566,486.93,2230.00
567,487.27,2276.00
568,487.60,2219.00
569,487.94,2183.00
570,488.28,2234.00
571,488.62,2274.00
572,488.95,2264.00
573,489.29,2291.00
574,489.63,2268.00
575,489.96,2241.00
576,490.30,2259.00
577,490.64,2289.00
578,490.98,2300.00
579,491.31,2342.00
580,491.65,2326.00
581,491.99,2297.00
582,492.32,2258.00
583,492.66,2301.00
584,493.00,2315.00
585,493.33,2278.00
586,493.67,2331.00
587,494.00,2320.00
588,494.34,2319.00
589,494.68,2378.00
590,495.01,2320.00
591,495.35,2302.00
592,495.68,2345.00
593,496.02,2298.00
594,496.36,2278.00
595,496.69,2337.00
596,497.03,2345.00
597,497.36,2347.00
598,497.70,2325.00
599,498.03,2326.00
600,498.37,2386.00
601,498.70,2376.00
602,499.04,2310.00
603,499.37,2366.00
604,499.71,2495.00
605,500.04,2497.00
606,500.38,2451.00
607,500.71,2474.00
608,501.05,2560.00
609,501.38,2570.00
610,501.72,2565.00
611,502.05,2654.00
612,502.38,2769.00
613,502.72,2741.00
614,503.05,2800.00
615,503.39,2943.00
616,503.72,3062.00
617,504.06,3093.00
618,504.39,3203.00
619,504.72,3277.00
620,505.06,3377.00
621,505.39,3470.00
622,505.73,3709.00
623,506.06,3845.00
624,506.39,4061.00
625,506.73,4187.00
626,507.06,4383.00
627,507.39,4552.00
628,507.73,4920.00
629,508.06,5161.00
630,508.39,5433.00
631,508.73,5498.00
632,509.06,5818.00
633,509.39,6018.00
634,509.73,6300.00
635,510.06,6431.00
636,510.39,6722.00
637,510.73,6925.00
638,511.06,7143.00
639,511.39,7280.00
640,511.72,7475.00
641,512.06,7669.00
642,512.39,7767.00
643,512.72,7737.00
644,513.05,7815.00
645,513.39,7867.00
646,513.72,7865.00
647,514.05,7901.00
648,514.38,7846.00
649,514.72,7815.00
650,515.05,7840.00
651,515.38,7758.00
652,515.71,7590.00
653,516.05,7643.00
654,516.38,7493.00
655,516.71,7361.00
656,517.04,7278.00
657,517.37,7252.00
658,517.70,7165.00
659,518.04,7107.00
660,518.37,6901.00
661,518.70,6772.00
662,519.03,6585.00
663,519.36,6546.00
664,519.70,6397.00
665,520.03,6282.00
666,520.36,6164.00
667,520.69,6132.00
668,521.02,5897.00
669,521.35,5786.00
670,521.68,5668.00
671,522.02,5576.00
672,522.35,5371.00
673,522.68,5246.00
674,523.01,5048.00
675,523.34,4921.00
676,523.67,4772.00
677,524.00,4652.00
678,524.33,4491.00
679,524.66,4453.00
680,525.00,4271.00
681,525.33,4126.00
682,525.66,3919.00
683,525.99,3834.00
684,526.32,3676.00
685,526.65,3552.00
686,526.98,3415.00
687,527.31,3377.00
688,527.64,3266.00
689,527.97,3222.00
690,528.30,3107.00
691,528.63,3050.00
692,528.96,3008.00
693,529.29,2944.00
694,529.63,2893.00
695,529.96,2868.00
696,530.29,2821.00
697,530.62,2760.00
698,530.95,2702.00
699,531.28,2661.00
700,531.61,2598.00
701,531.94,2623.00
702,532.27,2628.00
703,532.60,2559.00
704,532.93,2499.00
705,533.26,2514.00
706,533.59,2528.00
707,533.92,2553.00
708,534.25,2513.00
709,534.58,2453.00
710,534.91,2467.00
711,535.24,2520.00
712,535.57,2503.00
713,535.90,2455.00
714,536.23,2426.00
715,536.56,2415.00
716,536.89,2465.00
717,537.22,2496.00
718,537.55,2439.00
719,537.88,2420.00
720,538.21,2436.00
721,538.54,2444.00
722,538.87,2458.00
723,539.20,2406.00
724,539.53,2316.00
725,539.86,2369.00
726,540.19,2442.00
727,540.52,2428.00
728,540.85,2395.00
729,541.18,2308.00
730,541.51,2296.00
731,541.84,2408.00
732,542.17,2427.00
733,542.50,2424.00
734,542.83,2418.00
735,543.16,2425.00
736,543.48,2451.00
737,543.81,2386.00
738,544.14,2305.00
739,544.47,2326.00
740,544.80,2347.00
741,545.13,2330.00
742,545.46,2310.00
743,545.79,2292.00
744,546.12,2311.00
745,546.45,2344.00
746,546.78,2348.00
747,547.11,2339.00
748,547.44,2300.00
749,547.77,2294.00
750,548.10,2291.00
751,548.43,2289.00
752,548.76,2295.00
753,549.09,2288.00
754,549.42,2297.00
755,549.75,2265.00
756,550.08,2256.00
757,550.40,2249.00
758,550.73,2253.00
759,551.06,2282.00
760,551.39,2225.00
761,551.72,2228.00
762,552.05,2285.00
763,552.38,2227.00
764,552.71,2234.00
765,553.04,2321.00
766,553.37,2286.00
767,553.70,2360.00
768,554.03,2386.00
769,554.36,2359.00
770,554.69,2416.00
771,555.02,2406.00
772,555.35,2402.00
773,555.68,2442.00
774,556.01,2552.00
775,556.33,2607.00
776,556.66,2601.00
777,556.99,2673.00
778,557.32,2780.00
779,557.65,2834.00
780,557.98,2856.00
781,558.31,2895.00
782,558.64,3031.00
783,558.97,3200.00
784,559.30,3311.00
785,559.63,3342.00
786,559.96,3514.00
787,560.29,3739.00
788,560.62,3926.00
789,560.95,4199.00
790,561.28,4598.00
791,561.61,5098.00
792,561.94,5705.00
793,562.27,6237.00
794,562.60,7043.00
795,562.93,7948.00
796,563.25,8845.00
797,563.58,9951.00
798,563.91,11317.00
799,564.24,12633.00
800,564.57,14174.00
801,564.90,15687.00
802,565.23,17650.00
803,565.56,19876.00
804,565.89,22438.00
805,566.22,24824.00
806,566.55,27616.00
807,566.88,30256.00
808,567.21,32715.00
809,567.54,34816.00
810,567.87,36745.00
811,568.20,38171.00
812,568.53,39118.00
813,568.86,39815.00
814,569.19,40342.00
815,569.52,40315.00
816,569.85,40302.00
817,570.18,39926.00
818,570.51,39185.00
819,570.84,38187.00
820,571.17,36768.00
821,571.50,35342.00
822,571.83,33236.00
823,572.16,31012.00
824,572.49,28557.00
825,572.82,26510.00
826,573.15,24555.00
827,573.48,22962.00
828,573.81,21561.00
829,574.14,20413.00
830,574.47,19264.00
831,574.80,18267.00
832,575.13,17243.00
833,575.46,16397.00
834,575.80,15602.00
835,576.13,14793.00
836,576.46,13898.00
837,576.79,13206.00
838,577.12,12632.00
839,577.45,12190.00
840,577.78,11540.00
841,578.11,10849.00
842,578.44,10178.00
843,578.77,9491.00
844,579.10,8897.00
845,579.43,8241.00
846,579.76,7491.00
847,580.09,6974.00
848,580.42,6491.00
849,580.76,6071.00
850,581.09,5559.00
851,581.42,5193.00
852,581.75,4816.00
853,582.08,4414.00
854,582.41,4179.00
855,582.74,4009.00
856,583.07,3823.00
857,583.40,3637.00
858,583.74,3490.00
859,584.07,3328.00
860,584.40,3201.00
861,584.73,3141.00
862,585.06,3043.00
863,585.39,2923.00
864,585.72,2814.00
865,586.06,2769.00
866,586.39,2743.00
867,586.72,2708.00
868,587.05,2651.00
869,587.38,2622.00
870,587.71,2608.00
871,588.05,2490.00
872,588.38,2420.00
873,588.71,2451.00
874,589.04,2437.00
875,589.37,2428.00
876,589.71,2443.00
877,590.04,2362.00
878,590.37,2312.00
879,590.70,2355.00
880,591.03,2363.00
881,591.37,2337.00
882,591.70,2335.00
883,592.03,2333.00
884,592.36,2294.00
885,592.70,2281.00
886,593.03,2294.00
887,593.36,2229.00
888,593.69,2211.00
889,594.03,2365.00
890,594.36,2382.00
891,594.69,2342.00
892,595.03,2320.00
893,595.36,2263.00
894,595.69,2283.00
895,596.02,2298.00
896,596.36,2261.00
897,596.69,2261.00
898,597.02,2284.00
899,597.36,2332.00
900,597.69,2344.00
901,598.02,2331.00
902,598.36,2313.00
903,598.69,2369.00
904,599.02,2451.00
905,599.36,2469.00
906,599.69,2457.00
907,600.03,2548.00
908,600.36,2679.00
909,600.69,2719.00
910,601.03,2821.00
911,601.36,2968.00
912,601.70,3046.00
913,602.03,3247.00
914,602.36,3506.00
915,602.70,3881.00
916,603.03,4095.00
917,603.37,4447.00
918,603.70,4728.00
919,604.04,5018.00
920,604.37,5274.00
921,604.70,5670.00
922,605.04,5793.00
923,605.37,6209.00
924,605.71,6512.00
925,606.04,6997.00
926,606.38,7379.00
927,606.71,7993.00
928,607.05,8225.00
929,607.38,8611.00
930,607.72,8790.00
931,608.05,9206.00
932,608.39,9409.00
933,608.73,9838.00
934,609.06,9972.00
935,609.40,10480.00
936,609.73,10726.00
937,610.07,11495.00
938,610.40,11866.00
939,610.74,12429.00
940,611.08,12664.00
941,611.41,13256.00
942,611.75,13287.00
943,612.08,13459.00
944,612.42,13488.00
945,612.76,13648.00
946,613.09,13651.00
947,613.43,13909.00
948,613.77,13949.00
949,614.10,14578.00
950,614.44,14901.00
951,614.78,15437.00
952,615.11,15557.00
953,615.45,15822.00
954,615.79,15772.00
955,616.12,15388.00
956,616.46,15062.00
957,616.80,14333.00
958,617.14,13878.00
959,617.47,13229.00
960,617.81,12920.00
961,618.15,12349.00
962,618.49,12030.00
963,618.82,11423.00
964,619.16,11248.00
965,619.50,11046.00
966,619.84,10859.00
967,620.18,10724.00
968,620.51,10739.00
969,620.85,10759.00
970,621.19,10672.00
971,621.53,10390.00
972,621.87,10201.00
973,622.21,9704.00
974,622.55,9346.00
975,622.88,8590.00
976,623.22,8224.00
977,623.56,7467.00
978,623.90,7209.00
979,624.24,6623.00
980,624.58,6407.00
981,624.92,6100.00
982,625.26,6070.00
983,625.60,5816.00
984,625.94,5691.00
985,626.28,5753.00
986,626.62,5720.00
987,626.96,5841.00
988,627.30,5969.00
989,627.64,6201.00
990,627.98,6234.00
991,628.32,6330.00
992,628.66,6323.00
993,629.00,6252.00
994,629.34,6134.00
995,629.68,5860.00
996,630.02,5720.00
997,630.36,5382.00
998,630.70,5279.00
999,631.04,4860.00
1000,631.39,4726.00
1001,631.73,4428.00
1002,632.07,4261.00
1003,632.41,4143.00
1004,632.75,4115.00
1005,633.09,4041.00
1006,633.44,4081.00
1007,633.78,3989.00
1008,634.12,3972.00
1009,634.46,4104.00
1010,634.80,4035.00
1011,635.15,4109.00
1012,635.49,4210.00
1013,635.83,4452.00
1014,636.17,4569.00
1015,636.52,5107.00
1016,636.86,5290.00
1017,637.20,6060.00
1018,637.55,6399.00
1019,637.89,7855.00
1020,638.23,8362.00
1021,638.58,10402.00
1022,638.92,11199.00
1023,639.26,14288.00
1024,639.61,15477.00
1025,639.95,20966.00
1026,640.29,23065.00
1027,640.64,31581.00
1028,640.98,33936.00
1029,641.33,40778.00
1030,641.67,42176.00
1031,642.02,42477.00
1032,642.36,42767.00
1033,642.70,42774.00
1034,643.05,41563.00
1035,643.39,37409.00
1036,643.74,36010.00
1037,644.08,31404.00
1038,644.43,29984.00
1039,644.78,26515.00
1040,645.12,25615.00
1041,645.47,22444.00
1042,645.81,21527.00
1043,646.16,19071.00
1044,646.50,18304.00
1045,646.85,16022.00
1046,647.20,15513.00
1047,647.54,13705.00
1048,647.89,13283.00
1049,648.24,11798.00
1050,648.58,11337.00
1051,648.93,10381.00
1052,649.28,10143.00
1053,649.62,9530.00
1054,649.97,9382.00
1055,650.32,9065.00
1056,650.67,9001.00
1057,651.01,9124.00
1058,651.36,9169.00
1059,651.71,9250.00
1060,652.06,9230.00
1061,652.41,9035.00
1062,652.75,8963.00
1063,653.10,8817.00
1064,653.45,8765.00
1065,653.80,8573.00
1066,654.15,8461.00
1067,654.50,8128.00
1068,654.85,8019.00
1069,655.20,7607.00
1070,655.54,7583.00
1071,655.89,7259.00
1072,656.24,7130.00
1073,656.59,6882.00
1074,656.94,6832.00
1075,657.29,6642.00
1076,657.64,6567.00
1077,657.99,6198.00
1078,658.34,6136.00
1079,658.69,5933.00
1080,659.04,5846.00
1081,659.40,5585.00
1082,659.75,5547.00
1083,660.10,5512.00
1084,660.45,5526.00
1085,660.80,5495.00
1086,661.15,5527.00
1087,661.50,5592.00
1088,661.85,5589.00
1089,662.21,5870.00
1090,662.56,5905.00
1091,662.91,6288.00
1092,663.26,6397.00
1093,663.61,6883.00
1094,663.97,7011.00
1095,664.32,7144.00
1096,664.67,7129.00
1097,665.03,6757.00
1098,665.38,6564.00
1099,665.73,5697.00
1100,666.08,5535.00
1101,666.44,4738.00
1102,666.79,4543.00
1103,667.15,4007.00
1104,667.50,3847.00
1105,667.85,3360.00
1106,668.21,3382.00
1107,668.56,3138.00
1108,668.92,3019.00
1109,669.27,2869.00
1110,669.63,2901.00
1111,669.98,2768.00
1112,670.34,2697.00
1113,670.69,2538.00
1114,671.05,2514.00
1115,671.40,2357.00
1116,671.76,2368.00
1117,672.11,2374.00
1118,672.47,2384.00
1119,672.83,2354.00
1120,673.18,2375.00
1121,673.54,2322.00
1122,673.90,2273.00
1123,674.25,2328.00
1124,674.61,2317.00
1125,674.97,2294.00
1126,675.32,2288.00
1127,675.68,2262.00
1128,676.04,2283.00
1129,676.40,2339.00
1130,676.75,2404.00
1131,677.11,2387.00
1132,677.47,2312.00
1133,677.83,2296.00
1134,678.19,2273.00
1135,678.55,2320.00
1136,678.90,2332.00
1137,679.26,2334.00
1138,679.62,2360.00
1139,679.98,2391.00
1140,680.34,2384.00
1141,680.70,2404.00
1142,681.06,2423.00
1143,681.42,2461.00
1144,681.78,2438.00
1145,682.14,2435.00
1146,682.50,2483.00
1147,682.86,2444.00
1148,683.22,2414.00
1149,683.58,2436.00
1150,683.94,2456.00
1151,684.31,2538.00
1152,684.67,2500.00
1153,685.03,2538.00
1154,685.39,2583.00
1155,685.75,2748.00
1156,686.11,2792.00
1157,686.48,2995.00
1158,686.84,3024.00
1159,687.20,3128.00
1160,687.56,3145.00
1161,687.93,3180.00
1162,688.29,3168.00
1163,688.65,2998.00
1164,689.02,2937.00
1165,689.38,2781.00
1166,689.74,2800.00
1167,690.11,2733.00
1168,690.47,2661.00
1169,690.84,2566.00
1170,691.20,2602.00
1171,691.56,2551.00
1172,691.93,2531.00
1173,692.29,2330.00
1174,692.66,2308.00
1175,693.02,2278.00
1176,693.39,2243.00
1177,693.76,2172.00
1178,694.12,2164.00
1179,694.49,2114.00
1180,694.85,2165.00
1181,695.22,2199.00
1182,695.59,2148.00
1183,695.95,2129.00
1184,696.32,2090.00
1185,696.69,2078.00
1186,697.05,2107.00
1187,697.42,2064.00
1188,697.79,2082.00
1189,698.16,2101.00
1190,698.52,2098.00
1191,698.89,2115.00
1192,699.26,2138.00
1193,699.63,2178.00
1194,700.00,2183.00
1195,700.37,2270.00
1196,700.74,2235.00
1197,701.11,2372.00
1198,701.47,2436.00
1199,701.84,2513.00
1200,702.21,2535.00
1201,702.58,2527.00
1202,702.95,2501.00
1203,703.32,2413.00
1204,703.69,2409.00
1205,704.07,2355.00
1206,704.44,2310.00
1207,704.81,2230.00
1208,705.18,2230.00
1209,705.55,2209.00
1210,705.92,2209.00
1211,706.29,2148.00
1212,706.67,2172.00
1213,707.04,2259.00
1214,707.41,2254.00
1215,707.78,2243.00
1216,708.16,2245.00
1217,708.53,2212.00
1218,708.90,2204.00
1219,709.28,2235.00
1220,709.65,2243.00
1221,710.02,2162.00
1222,710.40,2147.00
1223,710.77,2206.00
1224,711.15,2214.00
1225,711.52,2140.00
1226,711.89,2120.00
1227,712.27,2150.00
1228,712.64,2132.00
1229,713.02,2086.00
1230,713.40,2100.00
1231,713.77,2055.00
1232,714.15,2079.00
1233,714.52,2065.00
1234,714.90,2056.00
1235,715.28,2078.00
1236,715.65,2080.00
1237,716.03,2086.00
1238,716.41,2035.00
1239,716.78,2071.00
1240,717.16,2101.00
1241,717.54,2006.00
1242,717.92,1980.00
1243,718.30,2028.00
1244,718.67,2059.00
1245,719.05,2064.00
1246,719.43,2084.00
1247,719.81,2047.00
1248,720.19,2013.00
1249,720.57,2069.00
1250,720.95,2111.00
1251,721.33,2114.00
1252,721.71,2078.00
1253,722.09,2051.00
1254,722.47,2065.00
1255,722.85,2122.00
1256,723.23,2129.00
1257,723.61,2148.00
1258,723.99,2161.00
1259,724.37,2082.00
1260,724.76,2047.00
1261,725.14,2083.00
1262,725.52,2102.00
1263,725.90,2081.00
1264,726.28,2063.00
1265,726.67,2057.00
1266,727.05,2109.00
1267,727.43,2030.00
1268,727.82,2008.00
1269,728.20,2049.00
1270,728.58,2072.00
1271,728.97,2003.00
1272,729.35,2001.00
1273,729.74,1995.00
1274,730.12,1941.00
1275,730.51,2045.00
1276,730.89,2069.00
1277,731.28,2093.00
1278,731.66,2108.00
1279,732.05,2213.00
1280,732.43,2250.00
1281,732.82,2332.00
1282,733.21,2335.00
1283,733.59,2279.00
1284,733.98,2304.00
1285,734.37,2271.00
1286,734.75,2236.00
1287,735.14,2203.00
1288,735.53,2191.00
1289,735.92,2062.00
1290,736.30,1996.00
1291,736.69,1922.00
1292,737.08,1931.00
1293,737.47,1977.00
1294,737.86,1953.00
1295,738.25,1871.00
1296,738.64,1885.00
1297,739.03,1958.00
1298,739.42,1976.00
1299,739.81,1982.00
1300,740.20,2009.00
1301,740.59,2071.00
1302,740.98,2040.00
1303,741.37,2067.00
1304,741.76,2084.00
1305,742.15,1982.00
1306,742.55,1953.00
1307,742.94,1861.00
1308,743.33,1811.00
1309,743.72,1762.00
1310,744.12,1767.00
1311,744.51,1773.00
1312,744.90,1789.00
1313,745.30,1725.00
1314,745.69,1694.00
1315,746.08,1690.00
1316,746.48,1685.00
1317,746.87,1662.00
1318,747.27,1652.00
1319,747.66,1667.00
1320,748.06,1713.00
1321,748.45,1742.00
1322,748.85,1742.00
1323,749.24,1754.00
1324,749.64,1750.00
1325,750.04,1786.00
1326,750.43,1780.00
1327,750.83,1779.00
1328,751.23,1807.00
1329,751.62,1888.00
1330,752.02,1908.00
1331,752.42,1986.00
1332,752.82,2003.00
1333,753.21,2061.00
1334,753.61,2102.00
1335,754.01,2209.00
1336,754.41,2280.00
1337,754.81,2465.00
1338,755.21,2580.00
1339,755.61,2780.00
1340,756.01,2851.00
1341,756.41,3169.00
1342,756.81,3220.00
1343,757.21,3478.00
1344,757.61,3612.00
1345,758.01,3843.00
1346,758.41,3893.00
1347,758.81,4025.00
1348,759.22,4097.00
1349,759.62,4120.00
1350,760.02,4101.00
1351,760.42,4020.00
1352,760.83,4002.00
1353,761.23,3936.00
1354,761.63,3849.00
1355,762.04,3641.00
1356,762.44,3567.00
1357,762.84,3453.00
1358,763.25,3450.00
1359,763.65,3398.00
1360,764.06,3389.00
1361,764.46,3432.00
1362,764.87,3432.00
1363,765.27,3325.00
1364,765.68,3245.00
1365,766.09,3047.00
1366,766.49,2928.00
1367,766.90,2598.00
1368,767.31,2504.00
1369,767.71,2280.00
1370,768.12,2236.00
1371,768.53,2097.00
1372,768.94,2049.00
1373,769.35,1956.00
1374,769.75,1896.00
1375,770.16,1765.00
1376,770.57,1736.00
1377,770.98,1680.00
1378,771.39,1681.00
1379,771.80,1665.00
1380,772.21,1674.00
1381,772.62,1674.00
1382,773.03,1675.00
1383,773.44,1606.00
1384,773.85,1511.00
1385,774.26,1575.00
1386,774.68,1638.00
1387,775.09,1586.00
1388,775.50,1574.00
1389,775.91,1575.00
1390,776.33,1552.00
1391,776.74,1575.00
1392,777.15,1622.00
1393,777.56,1574.00
1394,777.98,1519.00
1395,778.39,1536.00
1396,778.81,1562.00
1397,779.22,1582.00
1398,779.64,1578.00
1399,780.05,1574.00
1400,780.47,1604.00
1401,780.88,1611.00
1402,781.30,1578.00
1403,781.71,1560.00
1404,782.13,1524.00
1405,782.55,1534.00
1406,782.96,1596.00
1407,783.38,1579.00
1408,783.80,1557.00
1409,784.22,1556.00
1410,784.64,1585.00
1411,785.05,1577.00
1412,785.47,1544.00
1413,785.89,1514.00
1414,786.31,1502.00
1415,786.73,1564.00
1416,787.15,1556.00
1417,787.57,1515.00
1418,787.99,1522.00
1419,788.41,1539.00
1420,788.83,1551.00
1421,789.25,1554.00
1422,789.67,1552.00
1423,790.10,1540.00
1424,790.52,1578.00
1425,790.94,1581.00
1426,791.36,1533.00
1427,791.79,1526.00
1428,792.21,1555.00
1429,792.63,1534.00
1430,793.06,1515.00
1431,793.48,1559.00
1432,793.90,1579.00
1433,794.33,1541.00
1434,794.75,1491.00
1435,795.18,1484.00
1436,795.60,1523.00
1437,796.03,1500.00
1438,796.46,1485.00
1439,796.88,1507.00
1440,797.31,1514.00
1441,797.74,1572.00
1442,798.16,1600.00
1443,798.59,1562.00
1444,799.02,1563.00
1445,799.45,1571.00
1446,799.87,1536.00
1447,800.30,1569.00
1448,800.73,1594.00
1449,801.16,1582.00
1450,801.59,1556.00
1451,802.02,1546.00
1452,802.45,1563.00
1453,802.88,1568.00
1454,803.31,1559.00
1455,803.74,1517.00
1456,804.17,1545.00
1457,804.60,1541.00
1458,805.04,1485.00
1459,805.47,1495.00
1460,805.90,1519.00
1461,806.33,1511.00
1462,806.77,1534.00
1463,807.20,1514.00
1464,807.63,1495.00
1465,808.07,1511.00
1466,808.50,1487.00
1467,808.94,1506.00
1468,809.37,1516.00
1469,809.80,1461.00
1470,810.24,1449.00
1471,810.68,1503.00
1472,811.11,1554.00
1473,811.55,1557.00
1474,811.98,1558.00
1475,812.42,1558.00
1476,812.86,1560.00
1477,813.30,1530.00
1478,813.73,1482.00
1479,814.17,1533.00
1480,814.61,1558.00
1481,815.05,1534.00
1482,815.49,1536.00
1483,815.93,1502.00
1484,816.37,1501.00
1485,816.81,1517.00
1486,817.25,1487.00
1487,817.69,1509.00
1488,818.13,1557.00
1489,818.57,1554.00
1490,819.01,1490.00
1491,819.45,1510.00
1492,819.90,1546.00
1493,820.34,1458.00
1494,820.78,1449.00
1495,821.22,1512.00
1496,821.67,1495.00
1497,822.11,1464.00
1498,822.55,1477.00
1499,823.00,1491.00
1500,823.44,1502.00
1501,823.89,1483.00
1502,824.33,1467.00
1503,824.78,1459.00
1504,825.22,1487.00
1505,825.67,1489.00
1506,826.12,1489.00
1507,826.56,1449.00
1508,827.01,1402.00
1509,827.46,1435.00
1510,827.91,1476.00
1511,828.35,1517.00
1512,828.80,1487.00
1513,829.25,1505.00
1514,829.70,1551.00
1515,830.15,1504.00
1516,830.60,1470.00
1517,831.05,1500.00
1518,831.50,1468.00
1519,831.95,1478.00
1520,832.40,1511.00
1521,832.85,1473.00
1522,833.30,1488.00
1523,833.76,1530.00
1524,834.21,1535.00
1525,834.66,1510.00
1526,835.11,1493.00
1527,835.57,1489.00
1528,836.02,1496.00
1529,836.47,1528.00
1530,836.93,1514.00
1531,837.38,1451.00
1532,837.84,1450.00
1533,838.29,1462.00
1534,838.75,1452.00
1535,839.20,1505.00
1536,839.66,1525.00
1537,840.12,1454.00
1538,840.57,1408.00
1539,841.03,1488.00
1540,841.49,1522.00
1541,841.95,1470.00
1542,842.40,1440.00
1543,842.86,1454.00
1544,843.32,1504.00
1545,843.78,1420.00
1546,844.24,1409.00
1547,844.70,1421.00
1548,845.16,1429.00
1549,845.62,1506.00
1550,846.08,1503.00
1551,846.54,1519.00
1552,847.00,1476.00
1553,847.46,1430.00
1554,847.93,1452.00
1555,848.39,1410.00
1556,848.85,1440.00
1557,849.31,1493.00
1558,849.78,1442.00
1559,850.24,1449.00
1560,850.71,1497.00
1561,851.17,1438.00
1562,851.64,1418.00
1563,852.10,1433.00
1564,852.57,1401.00
1565,853.03,1446.00
1566,853.50,1473.00
1567,853.96,1452.00
1568,854.43,1430.00
1569,854.90,1437.00
1570,855.37,1431.00
1571,855.83,1435.00
1572,856.30,1451.00
1573,856.77,1404.00
1574,857.24,1436.00
1575,857.71,1453.00
1576,858.18,1440.00
1577,858.65,1403.00
1578,859.12,1375.00
1579,859.59,1466.00
1580,860.06,1472.00
1581,860.53,1461.00
1582,861.00,1450.00
1583,861.48,1405.00
1584,861.95,1429.00
1585,862.42,1464.00
1586,862.89,1461.00
1587,863.37,1413.00
1588,863.84,1419.00
1589,864.32,1464.00
1590,864.79,1494.00
1591,865.26,1485.00
1592,865.74,1440.00
1593,866.22,1376.00
1594,866.69,1349.00
1595,867.17,1436.00
1596,867.64,1492.00
1597,868.12,1422.00
1598,868.60,1427.00
1599,869.08,1458.00
1600,869.55,1439.00
1601,870.03,1433.00
1602,870.51,1395.00
1603,870.99,1406.00
1604,871.47,1454.00
1605,871.95,1420.00
1606,872.43,1438.00
1607,872.91,1425.00
1608,873.39,1346.00
1609,873.87,1385.00
1610,874.35,1416.00
1611,874.84,1422.00
1612,875.32,1466.00
1613,875.80,1463.00
1614,876.28,1430.00
1615,876.77,1400.00
1616,877.25,1429.00
1617,877.74,1485.00
1618,878.22,1484.00
1619,878.70,1498.00
1620,879.19,1516.00
1621,879.68,1445.00
1622,880.16,1387.00
1623,880.65,1422.00
1624,881.13,1465.00
1625,881.62,1493.00
1626,882.11,1469.00
1627,882.60,1497.00
1628,883.08,1549.00
1629,883.57,1492.00
1630,884.06,1440.00
1631,884.55,1386.00
1632,885.04,1394.00
1633,885.53,1448.00
1634,886.02,1423.00
1635,886.51,1415.00
1636,887.00,1414.00
1637,887.49,1420.00
1638,887.99,1473.00
1639,888.48,1441.00
1640,888.97,1405.00
1641,889.46,1438.00
1642,889.96,1437.00
1643,890.45,1464.00
1644,890.95,1471.00
1645,891.44,1437.00
1646,891.93,1451.00
1647,892.43,1464.00
1648,892.93,1444.00
1649,893.42,1440.00
1650,893.92,1440.00
1651,894.41,1425.00
1652,894.91,1422.00
1653,895.41,1416.00
1654,895.91,1417.00
1655,896.41,1393.00
1656,896.90,1413.00
1657,897.40,1473.00
1658,897.90,1468.00
1659,898.40,1469.00
1660,898.90,1481.00
1661,899.40,1499.00
1662,899.90,1461.00
1663,900.40,1446.00
1664,900.91,1496.00
1665,901.41,1499.00
1666,901.91,1494.00
1667,902.41,1502.00
1668,902.92,1525.00
1669,903.42,1517.00
1670,903.92,1488.00
1671,904.43,1482.00
1672,904.93,1513.00
1673,905.44,1530.00
1674,905.94,1475.00
1675,906.45,1501.00
1676,906.96,1509.00
1677,907.46,1430.00
1678,907.97,1439.00
1679,908.48,1476.00
1680,908.99,1461.00
1681,909.49,1421.00
1682,910.00,1426.00
1683,910.51,1411.00
1684,911.02,1401.00
1685,911.53,1439.00
1686,912.04,1406.00
1687,912.55,1417.00
1688,913.06,1444.00
1689,913.57,1398.00
1690,914.09,1410.00
1691,914.60,1463.00
1692,915.11,1463.00
1693,915.62,1387.00
1694,916.14,1391.00
1695,916.65,1399.00
1696,917.16,1388.00
1697,917.68,1380.00
1698,918.19,1352.00
1699,918.71,1392.00
1700,919.23,1368.00
1701,919.74,1388.00
1702,920.26,1434.00
1703,920.78,1381.00
1704,921.29,1362.00
1705,921.81,1351.00
1706,922.33,1364.00
1707,922.85,1384.00
1708,923.37,1382.00
1709,923.89,1360.00
1710,924.40,1388.00
1711,924.93,1402.00
1712,925.45,1304.00
1713,925.97,1335.00
1714,926.49,1401.00
1715,927.01,1394.00
1716,927.53,1391.00
1717,928.05,1358.00
1718,928.58,1347.00
1719,929.10,1355.00
1720,929.62,1390.00
1721,930.15,1435.00
1722,930.67,1415.00
1723,931.20,1404.00
1724,931.72,1399.00
1725,932.25,1418.00
1726,932.78,1404.00
1727,933.30,1374.00
1728,933.83,1436.00
1729,934.36,1402.00
1730,934.89,1332.00
1731,935.41,1359.00
1732,935.94,1428.00
1733,936.47,1430.00
1734,937.00,1404.00
1735,937.53,1393.00
1736,938.06,1374.00
1737,938.59,1395.00
1738,939.12,1406.00
1739,939.65,1357.00
1740,940.19,1348.00
1741,940.72,1381.00
1742,941.25,1384.00
1743,941.79,1423.00
1744,942.32,1397.00
1745,942.85,1328.00
1746,943.39,1334.00
1747,943.92,1371.00
1748,944.46,1376.00
1749,944.99,1334.00
1750,945.53,1347.00
1751,946.07,1386.00
1752,946.60,1417.00
1753,947.14,1476.00
1754,947.68,1458.00
1755,948.22,1391.00
1756,948.76,1392.00
1757,949.30,1436.00
1758,949.83,1391.00
1759,950.37,1367.00
1760,950.92,1367.00
1761,951.46,1350.00
1762,952.00,1370.00
1763,952.54,1382.00
1764,953.08,1460.00
1765,953.62,1407.00
1766,954.17,1329.00
1767,954.71,1342.00
1768,955.25,1366.00
1769,955.80,1410.00
1770,956.34,1381.00
1771,956.89,1373.00
1772,957.43,1380.00
1773,957.98,1327.00
1774,958.53,1311.00
1775,959.07,1323.00
1776,959.62,1399.00
1777,960.17,1413.00
1778,960.72,1357.00
1779,961.26,1431.00
1780,961.81,1416.00
1781,962.36,1361.00
1782,962.91,1357.00
1783,963.46,1360.00
1784,964.01,1416.00
1785,964.56,1413.00
1786,965.12,1381.00
1787,965.67,1311.00
1788,966.22,1300.00
1789,966.77,1411.00
1790,967.33,1420.00
1791,967.88,1356.00
1792,968.43,1307.00
1793,968.99,1333.00
1794,969.54,1412.00
1795,970.10,1374.00
1796,970.66,1322.00
1797,971.21,1291.00
1798,971.77,1310.00
1799,972.33,1321.00
1800,972.88,1310.00
1801,973.44,1345.00
1802,974.00,1348.00
1803,974.56,1347.00
1804,975.12,1309.00
1805,975.68,1259.00
1806,976.24,1309.00
1807,976.80,1351.00
1808,977.36,1313.00
1809,977.92,1300.00
1810,978.49,1291.00
1811,979.05,1311.00
1812,979.61,1350.00
1813,980.17,1328.00
1814,980.74,1328.00
1815,981.30,1318.00
1816,981.87,1263.00
1817,982.43,1242.00
1818,983.00,1315.00
1819,983.57,1349.00
1820,984.13,1283.00
1821,984.70,1287.00
1822,985.27,1315.00
1823,985.83,1278.00
1824,986.40,1279.00
1825,986.97,1298.00
1826,987.54,1305.00
1827,988.11,1297.00
1828,988.68,1322.00
1829,989.25,1328.00
1830,989.82,1276.00
1831,990.39,1303.00
1832,990.97,1309.00
1833,991.54,1282.00
1834,992.11,1282.00
1835,992.69,1341.00
1836,993.26,1319.00
1837,993.83,1274.00
1838,994.41,1298.00
1839,994.98,1286.00
1840,995.56,1280.00
1841,996.14,1259.00
1842,996.71,1241.00
1843,997.29,1220.00
1844,997.87,1221.00
1845,998.45,1279.00
1846,999.02,1294.00
1847,999.60,1300.00
1848,1000.18,1302.00
1849,1000.76,1308.00
1850,1001.34,1329.00
1851,1001.92,1273.00
1852,1002.50,1256.00
1853,1003.09,1323.00
1854,1003.67,1278.00
1855,1004.25,1208.00
1856,1004.83,1238.00
1857,1005.42,1247.00
1858,1006.00,1253.00
1859,1006.59,1241.00
1860,1007.17,1225.00
1861,1007.76,1249.00
1862,1008.34,1269.00
1863,1008.93,1253.00
1864,1009.52,1291.00
1865,1010.10,1303.00
1866,1010.69,1236.00
1867,1011.28,1252.00
1868,1011.87,1290.00
1869,1012.46,1268.00
1870,1013.05,1262.00
1871,1013.64,1240.00
1872,1014.23,1269.00
1873,1014.82,1252.00
1874,1015.41,1223.00
1875,1016.00,1266.00
1876,1016.59,1256.00
1877,1017.19,1272.00
1878,1017.78,1270.00
1879,1018.37,1239.00
1880,1018.97,1214.00
1881,1019.56,1203.00
1882,1020.16,1238.00
1883,1020.75,1265.00
1884,1021.35,1248.00
1885,1021.95,1239.00
1886,1022.54,1236.00
1887,1023.14,1216.00
1888,1023.74,1231.00
1889,1024.34,1248.00
1890,1024.94,1255.00
1891,1025.54,1195.00
1892,1026.14,1185.00
1893,1026.74,1230.00
1894,1027.34,1221.00
1895,1027.94,1239.00
1896,1028.54,1245.00
1897,1029.15,1197.00
1898,1029.75,1204.00
1899,1030.35,1232.00
1900,1030.96,1239.00
1901,1031.56,1250.00
1902,1032.17,1216.00
1903,1032.77,1199.00
1904,1033.38,1237.00
1905,1033.98,1262.00
1906,1034.59,1240.00
1907,1035.20,1237.00
1908,1035.81,1226.00
1909,1036.41,1235.00
1910,1037.02,1236.00
1911,1037.63,1208.00
1912,1038.24,1203.00
1913,1038.85,1157.00
1914,1039.46,1123.00
1915,1040.07,1121.00
1916,1040.69,1145.00
1917,1041.30,1165.00
1918,1041.91,1192.00
1919,1042.52,1200.00
1920,1043.14,1132.00
1921,1043.75,1124.00
1922,1044.37,1181.00
1923,1044.98,1170.00
1924,1045.60,1175.00
1925,1046.21,1229.00
1926,1046.83,1188.00
1927,1047.45,1147.00
1928,1048.07,1196.00
1929,1048.68,1182.00
1930,1049.30,1178.00
1931,1049.92,1171.00
1932,1050.54,1190.00
1933,1051.16,1193.00
1934,1051.78,1143.00
1935,1052.40,1186.00
1936,1053.02,1192.00
1937,1053.65,1126.00
1938,1054.27,1154.00
1939,1054.89,1126.00
1940,1055.52,1065.00
1941,1056.14,1082.00
1942,1056.76,1112.00
1943,1057.39,1118.00
1944,1058.02,1118.00
1945,1058.64,1140.00
1946,1059.27,1150.00
1947,1059.90,1176.00
1948,1060.52,1452.00
1949,1061.15,1452.00
1950,1061.78,1452.00
1951,1062.41,1452.00
